#  E (eV)   dos(E)     Int dos(E) EFermi =   12.930 eV
  -5.000 -0.4120E-81 -0.8240E-83
  -4.980 -0.4113E-81 -0.1647E-82
  -4.960 -0.4107E-81 -0.2468E-82
  -4.940 -0.4100E-81 -0.3288E-82
  -4.920 -0.4094E-81 -0.4107E-82
  -4.900 -0.4087E-81 -0.4924E-82
  -4.880 -0.4081E-81 -0.5740E-82
  -4.860 -0.4074E-81 -0.6555E-82
  -4.840 -0.4068E-81 -0.7369E-82
  -4.820 -0.4061E-81 -0.8181E-82
  -4.800 -0.4055E-81 -0.8992E-82
  -4.780 -0.4048E-81 -0.9801E-82
  -4.760 -0.4042E-81 -0.1061E-81
  -4.740 -0.4035E-81 -0.1142E-81
  -4.720 -0.4029E-81 -0.1222E-81
  -4.700 -0.4022E-81 -0.1303E-81
  -4.680 -0.4016E-81 -0.1383E-81
  -4.660 -0.4009E-81 -0.1463E-81
  -4.640 -0.4003E-81 -0.1543E-81
  -4.620 -0.3996E-81 -0.1623E-81
  -4.600 -0.3990E-81 -0.1703E-81
  -4.580 -0.3983E-81 -0.1783E-81
  -4.560 -0.3977E-81 -0.1862E-81
  -4.540 -0.3971E-81 -0.1942E-81
  -4.520 -0.3964E-81 -0.2021E-81
  -4.500 -0.3958E-81 -0.2100E-81
  -4.480 -0.3951E-81 -0.2179E-81
  -4.460 -0.3945E-81 -0.2258E-81
  -4.440 -0.3939E-81 -0.2337E-81
  -4.420 -0.3932E-81 -0.2415E-81
  -4.400 -0.3926E-81 -0.2494E-81
  -4.380 -0.3919E-81 -0.2572E-81
  -4.360 -0.3913E-81 -0.2651E-81
  -4.340 -0.3907E-81 -0.2729E-81
  -4.320 -0.3900E-81 -0.2807E-81
  -4.300 -0.3894E-81 -0.2885E-81
  -4.280 -0.3888E-81 -0.2962E-81
  -4.260 -0.3881E-81 -0.3040E-81
  -4.240 -0.3875E-81 -0.3117E-81
  -4.220 -0.3869E-81 -0.3195E-81
  -4.200 -0.3862E-81 -0.3272E-81
  -4.180 -0.3856E-81 -0.3349E-81
  -4.160 -0.3850E-81 -0.3426E-81
  -4.140 -0.3843E-81 -0.3503E-81
  -4.120 -0.3837E-81 -0.3580E-81
  -4.100 -0.3831E-81 -0.3656E-81
  -4.080 -0.3825E-81 -0.3733E-81
  -4.060 -0.3818E-81 -0.3809E-81
  -4.040 -0.3812E-81 -0.3885E-81
  -4.020 -0.3806E-81 -0.3962E-81
  -4.000 -0.3799E-81 -0.4038E-81
  -3.980 -0.3793E-81 -0.4113E-81
  -3.960 -0.3787E-81 -0.4189E-81
  -3.940 -0.3781E-81 -0.4265E-81
  -3.920 -0.3775E-81 -0.4340E-81
  -3.900 -0.3768E-81 -0.4416E-81
  -3.880 -0.3762E-81 -0.4491E-81
  -3.860 -0.3756E-81 -0.4566E-81
  -3.840 -0.3750E-81 -0.4641E-81
  -3.820 -0.3743E-81 -0.4716E-81
  -3.800 -0.3737E-81 -0.4791E-81
  -3.780 -0.3731E-81 -0.4865E-81
  -3.760 -0.3725E-81 -0.4940E-81
  -3.740 -0.3719E-81 -0.5014E-81
  -3.720 -0.3713E-81 -0.5088E-81
  -3.700 -0.3706E-81 -0.5162E-81
  -3.680 -0.3700E-81 -0.5236E-81
  -3.660 -0.3694E-81 -0.5310E-81
  -3.640 -0.3688E-81 -0.5384E-81
  -3.620 -0.3682E-81 -0.5458E-81
  -3.600 -0.3676E-81 -0.5531E-81
  -3.580 -0.3670E-81 -0.5605E-81
  -3.560 -0.3663E-81 -0.5678E-81
  -3.540 -0.3657E-81 -0.5751E-81
  -3.520 -0.3651E-81 -0.5824E-81
  -3.500 -0.3645E-81 -0.5897E-81
  -3.480 -0.3639E-81 -0.5970E-81
  -3.460 -0.3633E-81 -0.6042E-81
  -3.440 -0.3627E-81 -0.6115E-81
  -3.420 -0.3621E-81 -0.6187E-81
  -3.400 -0.3615E-81 -0.6260E-81
  -3.380 -0.3609E-81 -0.6332E-81
  -3.360 -0.3603E-81 -0.6404E-81
  -3.340 -0.3597E-81 -0.6476E-81
  -3.320 -0.3591E-81 -0.6548E-81
  -3.300 -0.3584E-81 -0.6619E-81
  -3.280 -0.3578E-81 -0.6691E-81
  -3.260 -0.3572E-81 -0.6762E-81
  -3.240 -0.3566E-81 -0.6834E-81
  -3.220 -0.3560E-81 -0.6905E-81
  -3.200 -0.3554E-81 -0.6976E-81
  -3.180 -0.3548E-81 -0.7047E-81
  -3.160 -0.3542E-81 -0.7118E-81
  -3.140 -0.3536E-81 -0.7189E-81
  -3.120 -0.3530E-81 -0.7259E-81
  -3.100 -0.3524E-81 -0.7330E-81
  -3.080 -0.3518E-81 -0.7400E-81
  -3.060 -0.3512E-81 -0.7470E-81
  -3.040 -0.3507E-81 -0.7540E-81
  -3.020 -0.3501E-81 -0.7610E-81
  -3.000 -0.3495E-81 -0.7680E-81
  -2.980 -0.3489E-81 -0.7750E-81
  -2.960 -0.3483E-81 -0.7820E-81
  -2.940 -0.3477E-81 -0.7889E-81
  -2.920 -0.3471E-81 -0.7959E-81
  -2.900 -0.3465E-81 -0.8028E-81
  -2.880 -0.3459E-81 -0.8097E-81
  -2.860 -0.3453E-81 -0.8166E-81
  -2.840 -0.3447E-81 -0.8235E-81
  -2.820 -0.3441E-81 -0.8304E-81
  -2.800 -0.3436E-81 -0.8373E-81
  -2.780 -0.3430E-81 -0.8441E-81
  -2.760 -0.3424E-81 -0.8510E-81
  -2.740 -0.3418E-81 -0.8578E-81
  -2.720 -0.3412E-81 -0.8646E-81
  -2.700 -0.3406E-81 -0.8714E-81
  -2.680 -0.3400E-81 -0.8783E-81
  -2.660 -0.3395E-81 -0.8850E-81
  -2.640 -0.3389E-81 -0.8918E-81
  -2.620 -0.3383E-81 -0.8986E-81
  -2.600 -0.3377E-81 -0.9053E-81
  -2.580 -0.3371E-81 -0.9121E-81
  -2.560 -0.3365E-81 -0.9188E-81
  -2.540 -0.3360E-81 -0.9255E-81
  -2.520 -0.3354E-81 -0.9322E-81
  -2.500 -0.3348E-81 -0.9389E-81
  -2.480 -0.3342E-81 -0.9456E-81
  -2.460 -0.3336E-81 -0.9523E-81
  -2.440 -0.3331E-81 -0.9590E-81
  -2.420 -0.3325E-81 -0.9656E-81
  -2.400 -0.3319E-81 -0.9722E-81
  -2.380 -0.3313E-81 -0.9789E-81
  -2.360 -0.3308E-81 -0.9855E-81
  -2.340 -0.3302E-81 -0.9921E-81
  -2.320 -0.3296E-81 -0.9987E-81
  -2.300 -0.3290E-81 -0.1005E-80
  -2.280 -0.3285E-81 -0.1012E-80
  -2.260 -0.3279E-81 -0.1018E-80
  -2.240 -0.3273E-81 -0.1025E-80
  -2.220 -0.3268E-81 -0.1031E-80
  -2.200 -0.3262E-81 -0.1038E-80
  -2.180 -0.3256E-81 -0.1045E-80
  -2.160 -0.3251E-81 -0.1051E-80
  -2.140 -0.3245E-81 -0.1057E-80
  -2.120 -0.3239E-81 -0.1064E-80
  -2.100 -0.3234E-81 -0.1070E-80
  -2.080 -0.3228E-81 -0.1077E-80
  -2.060 -0.3222E-81 -0.1083E-80
  -2.040 -0.3217E-81 -0.1090E-80
  -2.020 -0.3211E-81 -0.1096E-80
  -2.000 -0.3205E-81 -0.1103E-80
  -1.980 -0.3200E-81 -0.1109E-80
  -1.960 -0.3194E-81 -0.1115E-80
  -1.940 -0.3188E-81 -0.1122E-80
  -1.920 -0.3183E-81 -0.1128E-80
  -1.900 -0.3177E-81 -0.1134E-80
  -1.880 -0.3172E-81 -0.1141E-80
  -1.860 -0.3166E-81 -0.1147E-80
  -1.840 -0.3160E-81 -0.1153E-80
  -1.820 -0.3155E-81 -0.1160E-80
  -1.800 -0.3149E-81 -0.1166E-80
  -1.780 -0.3144E-81 -0.1172E-80
  -1.760 -0.3138E-81 -0.1179E-80
  -1.740 -0.3133E-81 -0.1185E-80
  -1.720 -0.3127E-81 -0.1191E-80
  -1.700 -0.3121E-81 -0.1197E-80
  -1.680 -0.3116E-81 -0.1204E-80
  -1.660 -0.3110E-81 -0.1210E-80
  -1.640 -0.3105E-81 -0.1216E-80
  -1.620 -0.3099E-81 -0.1222E-80
  -1.600 -0.3094E-81 -0.1228E-80
  -1.580 -0.3088E-81 -0.1235E-80
  -1.560 -0.3083E-81 -0.1241E-80
  -1.540 -0.3077E-81 -0.1247E-80
  -1.520 -0.3072E-81 -0.1253E-80
  -1.500 -0.3066E-81 -0.1259E-80
  -1.480 -0.3061E-81 -0.1265E-80
  -1.460 -0.3055E-81 -0.1271E-80
  -1.440 -0.3050E-81 -0.1278E-80
  -1.420 -0.3045E-81 -0.1284E-80
  -1.400 -0.3039E-81 -0.1290E-80
  -1.380 -0.3034E-81 -0.1296E-80
  -1.360 -0.3028E-81 -0.1302E-80
  -1.340 -0.3023E-81 -0.1308E-80
  -1.320 -0.3017E-81 -0.1314E-80
  -1.300 -0.3012E-81 -0.1320E-80
  -1.280 -0.3007E-81 -0.1326E-80
  -1.260 -0.3001E-81 -0.1332E-80
  -1.240 -0.2996E-81 -0.1338E-80
  -1.220 -0.2990E-81 -0.1344E-80
  -1.200 -0.2985E-81 -0.1350E-80
  -1.180 -0.2980E-81 -0.1356E-80
  -1.160 -0.2974E-81 -0.1362E-80
  -1.140 -0.2969E-81 -0.1368E-80
  -1.120 -0.2963E-81 -0.1374E-80
  -1.100 -0.2958E-81 -0.1380E-80
  -1.080 -0.2953E-81 -0.1386E-80
  -1.060 -0.2947E-81 -0.1391E-80
  -1.040 -0.2942E-81 -0.1397E-80
  -1.020 -0.2937E-81 -0.1403E-80
  -1.000 -0.2931E-81 -0.1409E-80
  -0.980 -0.2926E-81 -0.1415E-80
  -0.960 -0.2921E-81 -0.1421E-80
  -0.940 -0.2915E-81 -0.1427E-80
  -0.920 -0.2910E-81 -0.1432E-80
  -0.900 -0.2905E-81 -0.1438E-80
  -0.880 -0.2900E-81 -0.1444E-80
  -0.860 -0.2894E-81 -0.1450E-80
  -0.840 -0.2889E-81 -0.1456E-80
  -0.820 -0.2884E-81 -0.1461E-80
  -0.800 -0.2879E-81 -0.1467E-80
  -0.780 -0.2873E-81 -0.1473E-80
  -0.760 -0.2868E-81 -0.1479E-80
  -0.740 -0.2863E-81 -0.1484E-80
  -0.720 -0.2858E-81 -0.1490E-80
  -0.700 -0.2852E-81 -0.1496E-80
  -0.680 -0.2847E-81 -0.1501E-80
  -0.660 -0.2842E-81 -0.1507E-80
  -0.640 -0.2837E-81 -0.1513E-80
  -0.620 -0.2831E-81 -0.1518E-80
  -0.600 -0.2826E-81 -0.1524E-80
  -0.580 -0.2821E-81 -0.1530E-80
  -0.560 -0.2816E-81 -0.1535E-80
  -0.540 -0.2811E-81 -0.1541E-80
  -0.520 -0.2805E-81 -0.1547E-80
  -0.500 -0.2800E-81 -0.1552E-80
  -0.480 -0.2795E-81 -0.1558E-80
  -0.460 -0.2790E-81 -0.1563E-80
  -0.440 -0.2785E-81 -0.1569E-80
  -0.420 -0.2780E-81 -0.1574E-80
  -0.400 -0.2775E-81 -0.1580E-80
  -0.380 -0.2769E-81 -0.1586E-80
  -0.360 -0.2764E-81 -0.1591E-80
  -0.340 -0.2759E-81 -0.1597E-80
  -0.320 -0.2754E-81 -0.1602E-80
  -0.300 -0.2749E-81 -0.1608E-80
  -0.280 -0.2744E-81 -0.1613E-80
  -0.260 -0.2739E-81 -0.1619E-80
  -0.240 -0.2734E-81 -0.1624E-80
  -0.220 -0.2729E-81 -0.1630E-80
  -0.200 -0.2723E-81 -0.1635E-80
  -0.180 -0.2718E-81 -0.1640E-80
  -0.160 -0.2713E-81 -0.1646E-80
  -0.140 -0.2708E-81 -0.1651E-80
  -0.120 -0.2703E-81 -0.1657E-80
  -0.100 -0.2698E-81 -0.1662E-80
  -0.080 -0.2693E-81 -0.1667E-80
  -0.060 -0.2688E-81 -0.1673E-80
  -0.040 -0.2683E-81 -0.1678E-80
  -0.020 -0.2678E-81 -0.1684E-80
   0.000 -0.2673E-81 -0.1689E-80
   0.020 -0.2668E-81 -0.1694E-80
   0.040 -0.2663E-81 -0.1700E-80
   0.060 -0.2658E-81 -0.1705E-80
   0.080 -0.2653E-81 -0.1710E-80
   0.100 -0.2648E-81 -0.1715E-80
   0.120 -0.2643E-81 -0.1721E-80
   0.140 -0.2638E-81 -0.1726E-80
   0.160 -0.2633E-81 -0.1731E-80
   0.180 -0.2628E-81 -0.1737E-80
   0.200 -0.2623E-81 -0.1742E-80
   0.220 -0.2618E-81 -0.1747E-80
   0.240 -0.2613E-81 -0.1752E-80
   0.260 -0.2608E-81 -0.1757E-80
   0.280 -0.2604E-81 -0.1763E-80
   0.300 -0.2599E-81 -0.1768E-80
   0.320 -0.2594E-81 -0.1773E-80
   0.340 -0.2589E-81 -0.1778E-80
   0.360 -0.2584E-81 -0.1783E-80
   0.380 -0.2579E-81 -0.1789E-80
   0.400 -0.2574E-81 -0.1794E-80
   0.420 -0.2569E-81 -0.1799E-80
   0.440 -0.2564E-81 -0.1804E-80
   0.460 -0.2559E-81 -0.1809E-80
   0.480 -0.2555E-81 -0.1814E-80
   0.500 -0.2550E-81 -0.1819E-80
   0.520 -0.2545E-81 -0.1824E-80
   0.540 -0.2540E-81 -0.1829E-80
   0.560 -0.2535E-81 -0.1835E-80
   0.580 -0.2530E-81 -0.1840E-80
   0.600 -0.2525E-81 -0.1845E-80
   0.620 -0.2521E-81 -0.1850E-80
   0.640 -0.2516E-81 -0.1855E-80
   0.660 -0.2511E-81 -0.1860E-80
   0.680 -0.2506E-81 -0.1865E-80
   0.700 -0.2501E-81 -0.1870E-80
   0.720 -0.2497E-81 -0.1875E-80
   0.740 -0.2492E-81 -0.1880E-80
   0.760 -0.2487E-81 -0.1885E-80
   0.780 -0.2482E-81 -0.1890E-80
   0.800 -0.2478E-81 -0.1895E-80
   0.820 -0.2473E-81 -0.1900E-80
   0.840 -0.2468E-81 -0.1905E-80
   0.860 -0.2463E-81 -0.1909E-80
   0.880 -0.2459E-81 -0.1914E-80
   0.900 -0.2454E-81 -0.1919E-80
   0.920 -0.2449E-81 -0.1924E-80
   0.940 -0.2444E-81 -0.1929E-80
   0.960 -0.2440E-81 -0.1934E-80
   0.980 -0.2435E-81 -0.1939E-80
   1.000 -0.2430E-81 -0.1944E-80
   1.020 -0.2426E-81 -0.1949E-80
   1.040 -0.2421E-81 -0.1953E-80
   1.060 -0.2416E-81 -0.1958E-80
   1.080 -0.2411E-81 -0.1963E-80
   1.100 -0.2407E-81 -0.1968E-80
   1.120 -0.2402E-81 -0.1973E-80
   1.140 -0.2397E-81 -0.1977E-80
   1.160 -0.2393E-81 -0.1982E-80
   1.180 -0.2388E-81 -0.1987E-80
   1.200 -0.2384E-81 -0.1992E-80
   1.220 -0.2379E-81 -0.1997E-80
   1.240 -0.2374E-81 -0.2001E-80
   1.260 -0.2370E-81 -0.2006E-80
   1.280 -0.2365E-81 -0.2011E-80
   1.300 -0.2360E-81 -0.2015E-80
   1.320 -0.2356E-81 -0.2020E-80
   1.340 -0.2351E-81 -0.2025E-80
   1.360 -0.2347E-81 -0.2030E-80
   1.380 -0.2345E-81 -0.2034E-80
   1.400 -0.2360E-81 -0.2039E-80
   1.420 -0.2504E-81 -0.2044E-80
   1.440 -0.3615E-81 -0.2051E-80
   1.460 -0.1188E-80 -0.2075E-80
   1.480 -0.7246E-80 -0.2220E-80
   1.500 -0.5118E-79 -0.3243E-80
   1.520 -0.3663E-78 -0.1057E-79
   1.540 -0.2602E-77 -0.6260E-79
   1.560 -0.1829E-76 -0.4284E-78
   1.580 -0.1272E-75 -0.2972E-77
   1.600 -0.8749E-75 -0.2047E-76
   1.620 -0.5954E-74 -0.1395E-75
   1.640 -0.4008E-73 -0.9411E-75
   1.660 -0.2668E-72 -0.6278E-74
   1.680 -0.1758E-71 -0.4143E-73
   1.700 -0.1145E-70 -0.2704E-72
   1.720 -0.7380E-70 -0.1746E-71
   1.740 -0.4705E-69 -0.1116E-70
   1.760 -0.2967E-68 -0.7049E-70
   1.780 -0.1851E-67 -0.4406E-69
   1.800 -0.1142E-66 -0.2725E-68
   1.820 -0.6970E-66 -0.1667E-67
   1.840 -0.4208E-65 -0.1008E-66
   1.860 -0.2513E-64 -0.6035E-66
   1.880 -0.1485E-63 -0.3573E-65
   1.900 -0.8677E-63 -0.2093E-64
   1.920 -0.5016E-62 -0.1212E-63
   1.940 -0.2868E-61 -0.6949E-63
   1.960 -0.1622E-60 -0.3939E-62
   1.980 -0.9076E-60 -0.2209E-61
   2.000 -0.5023E-59 -0.1226E-60
   2.020 -0.2750E-58 -0.6725E-60
   2.040 -0.1489E-57 -0.3651E-59
   2.060 -0.7976E-57 -0.1960E-58
   2.080 -0.4226E-56 -0.1041E-57
   2.100 -0.2215E-55 -0.5471E-57
   2.120 -0.1148E-54 -0.2844E-56
   2.140 -0.5889E-54 -0.1462E-55
   2.160 -0.2987E-53 -0.7436E-55
   2.180 -0.1499E-52 -0.3741E-54
   2.200 -0.7439E-52 -0.1862E-53
   2.220 -0.3652E-51 -0.9166E-53
   2.240 -0.1774E-50 -0.4464E-52
   2.260 -0.8520E-50 -0.2150E-51
   2.280 -0.4048E-49 -0.1025E-50
   2.300 -0.1903E-48 -0.4830E-50
   2.320 -0.8845E-48 -0.2252E-49
   2.340 -0.4068E-47 -0.1039E-48
   2.360 -0.1850E-46 -0.4739E-48
   2.380 -0.8325E-46 -0.2139E-47
   2.400 -0.3705E-45 -0.9549E-47
   2.420 -0.1631E-44 -0.4217E-46
   2.440 -0.7102E-44 -0.1842E-45
   2.460 -0.3059E-43 -0.7960E-45
   2.480 -0.1303E-42 -0.3402E-44
   2.500 -0.5492E-42 -0.1439E-43
   2.520 -0.2289E-41 -0.6017E-43
   2.540 -0.9439E-41 -0.2489E-42
   2.560 -0.3849E-40 -0.1019E-41
   2.580 -0.1553E-39 -0.4125E-41
   2.600 -0.6196E-39 -0.1652E-40
   2.620 -0.2445E-38 -0.6543E-40
   2.640 -0.9547E-38 -0.2564E-39
   2.660 -0.3686E-37 -0.9936E-39
   2.680 -0.1408E-36 -0.3809E-38
   2.700 -0.5319E-36 -0.1445E-37
   2.720 -0.1988E-35 -0.5420E-37
   2.740 -0.7346E-35 -0.2011E-36
   2.760 -0.2686E-34 -0.7382E-36
   2.780 -0.9711E-34 -0.2680E-35
   2.800 -0.3473E-33 -0.9627E-35
   2.820 -0.1229E-32 -0.3420E-34
   2.840 -0.4299E-32 -0.1202E-33
   2.860 -0.1488E-31 -0.4178E-33
   2.880 -0.5094E-31 -0.1437E-32
   2.900 -0.1725E-30 -0.4886E-32
   2.920 -0.5776E-30 -0.1644E-31
   2.940 -0.1913E-29 -0.5470E-31
   2.960 -0.6268E-29 -0.1801E-30
   2.980 -0.2031E-28 -0.5863E-30
   3.000 -0.6510E-28 -0.1888E-29
   3.020 -0.2064E-27 -0.6016E-29
   3.040 -0.6471E-27 -0.1896E-28
   3.060 -0.2007E-26 -0.5909E-28
   3.080 -0.6155E-26 -0.1822E-27
   3.100 -0.1867E-25 -0.5557E-27
   3.120 -0.5603E-25 -0.1676E-26
   3.140 -0.1663E-24 -0.5002E-26
   3.160 -0.4881E-24 -0.1476E-25
   3.180 -0.1417E-23 -0.4310E-25
   3.200 -0.4068E-23 -0.1245E-24
   3.220 -0.1155E-22 -0.3555E-24
   3.240 -0.3244E-22 -0.1004E-23
   3.260 -0.9012E-22 -0.2807E-23
   3.280 -0.2476E-21 -0.7759E-23
   3.300 -0.6727E-21 -0.2121E-22
   3.320 -0.1808E-20 -0.5737E-22
   3.340 -0.4804E-20 -0.1534E-21
   3.360 -0.1263E-19 -0.4060E-21
   3.380 -0.3282E-19 -0.1062E-20
   3.400 -0.8438E-19 -0.2750E-20
   3.420 -0.2145E-18 -0.7041E-20
   3.440 -0.5394E-18 -0.1783E-19
   3.460 -0.1341E-17 -0.4466E-19
   3.480 -0.3299E-17 -0.1106E-18
   3.500 -0.8023E-17 -0.2711E-18
   3.520 -0.1930E-16 -0.6570E-18
   3.540 -0.4589E-16 -0.1575E-17
   3.560 -0.1079E-15 -0.3734E-17
   3.580 -0.2511E-15 -0.8756E-17
   3.600 -0.5776E-15 -0.2031E-16
   3.620 -0.1314E-14 -0.4658E-16
   3.640 -0.2955E-14 -0.1057E-15
   3.660 -0.6574E-14 -0.2372E-15
   3.680 -0.1446E-13 -0.5264E-15
   3.700 -0.3145E-13 -0.1155E-14
   3.720 -0.6764E-13 -0.2508E-14
   3.740 -0.1439E-12 -0.5385E-14
   3.760 -0.3025E-12 -0.1144E-13
   3.780 -0.6290E-12 -0.2402E-13
   3.800 -0.1293E-11 -0.4988E-13
   3.820 -0.2629E-11 -0.1025E-12
   3.840 -0.5284E-11 -0.2082E-12
   3.860 -0.1050E-10 -0.4182E-12
   3.880 -0.2063E-10 -0.8309E-12
   3.900 -0.4009E-10 -0.1633E-11
   3.920 -0.7699E-10 -0.3172E-11
   3.940 -0.1462E-09 -0.6096E-11
   3.960 -0.2744E-09 -0.1158E-10
   3.980 -0.5093E-09 -0.2177E-10
   4.000 -0.9342E-09 -0.4045E-10
   4.020 -0.1694E-08 -0.7434E-10
   4.040 -0.3037E-08 -0.1351E-09
   4.060 -0.5382E-08 -0.2427E-09
   4.080 -0.9426E-08 -0.4312E-09
   4.100 -0.1632E-07 -0.7576E-09
   4.120 -0.2792E-07 -0.1316E-08
   4.140 -0.4721E-07 -0.2260E-08
   4.160 -0.7888E-07 -0.3838E-08
   4.180 -0.1303E-06 -0.6443E-08
   4.200 -0.2126E-06 -0.1069E-07
   4.220 -0.3427E-06 -0.1755E-07
   4.240 -0.5460E-06 -0.2847E-07
   4.260 -0.8592E-06 -0.4565E-07
   4.280 -0.1336E-05 -0.7237E-07
   4.300 -0.2051E-05 -0.1134E-06
   4.320 -0.3111E-05 -0.1756E-06
   4.340 -0.4660E-05 -0.2688E-06
   4.360 -0.6892E-05 -0.4067E-06
   4.380 -0.1006E-04 -0.6080E-06
   4.400 -0.1451E-04 -0.8981E-06
   4.420 -0.2064E-04 -0.1311E-05
   4.440 -0.2897E-04 -0.1890E-05
   4.460 -0.4013E-04 -0.2693E-05
   4.480 -0.5481E-04 -0.3789E-05
   4.500 -0.7381E-04 -0.5265E-05
   4.520 -0.9797E-04 -0.7225E-05
   4.540 -0.1281E-03 -0.9787E-05
   4.560 -0.1650E-03 -0.1309E-04
   4.580 -0.2091E-03 -0.1727E-04
   4.600 -0.2605E-03 -0.2248E-04
   4.620 -0.3189E-03 -0.2886E-04
   4.640 -0.3831E-03 -0.3652E-04
   4.660 -0.4509E-03 -0.4554E-04
   4.680 -0.5189E-03 -0.5591E-04
   4.700 -0.5823E-03 -0.6756E-04
   4.720 -0.6347E-03 -0.8025E-04
   4.740 -0.6680E-03 -0.9361E-04
   4.760 -0.6727E-03 -0.1071E-03
   4.780 -0.6378E-03 -0.1198E-03
   4.800 -0.5515E-03 -0.1309E-03
   4.820 -0.4017E-03 -0.1389E-03
   4.840 -0.1769E-03 -0.1424E-03
   4.860  0.1328E-03 -0.1398E-03
   4.880  0.5345E-03 -0.1291E-03
   4.900  0.1031E-02 -0.1085E-03
   4.920  0.1621E-02 -0.7604E-04
   4.940  0.2295E-02 -0.3015E-04
   4.960  0.3037E-02  0.3060E-04
   4.980  0.3826E-02  0.1071E-03
   5.000  0.4631E-02  0.1997E-03
   5.020  0.5416E-02  0.3080E-03
   5.040  0.6140E-02  0.4309E-03
   5.060  0.6762E-02  0.5661E-03
   5.080  0.7239E-02  0.7109E-03
   5.100  0.7536E-02  0.8616E-03
   5.120  0.7624E-02  0.1014E-02
   5.140  0.7488E-02  0.1164E-02
   5.160  0.7132E-02  0.1306E-02
   5.180  0.6580E-02  0.1438E-02
   5.200  0.5878E-02  0.1556E-02
   5.220  0.5098E-02  0.1658E-02
   5.240  0.4340E-02  0.1744E-02
   5.260  0.3724E-02  0.1819E-02
   5.280  0.3394E-02  0.1887E-02
   5.300  0.3506E-02  0.1957E-02
   5.320  0.4226E-02  0.2041E-02
   5.340  0.5718E-02  0.2156E-02
   5.360  0.8136E-02  0.2318E-02
   5.380  0.1161E-01  0.2551E-02
   5.400  0.1625E-01  0.2876E-02
   5.420  0.2210E-01  0.3318E-02
   5.440  0.2918E-01  0.3901E-02
   5.460  0.3743E-01  0.4650E-02
   5.480  0.4676E-01  0.5585E-02
   5.500  0.5699E-01  0.6725E-02
   5.520  0.6789E-01  0.8082E-02
   5.540  0.7921E-01  0.9667E-02
   5.560  0.9061E-01  0.1148E-01
   5.580  0.1018E+00  0.1351E-01
   5.600  0.1123E+00  0.1576E-01
   5.620  0.1219E+00  0.1820E-01
   5.640  0.1302E+00  0.2080E-01
   5.660  0.1370E+00  0.2354E-01
   5.680  0.1419E+00  0.2638E-01
   5.700  0.1448E+00  0.2928E-01
   5.720  0.1456E+00  0.3219E-01
   5.740  0.1442E+00  0.3507E-01
   5.760  0.1407E+00  0.3789E-01
   5.780  0.1352E+00  0.4059E-01
   5.800  0.1278E+00  0.4315E-01
   5.820  0.1188E+00  0.4552E-01
   5.840  0.1085E+00  0.4769E-01
   5.860  0.9716E-01  0.4964E-01
   5.880  0.8516E-01  0.5134E-01
   5.900  0.7286E-01  0.5280E-01
   5.920  0.6064E-01  0.5401E-01
   5.940  0.4885E-01  0.5499E-01
   5.960  0.3783E-01  0.5574E-01
   5.980  0.2790E-01  0.5630E-01
   6.000  0.1932E-01  0.5669E-01
   6.020  0.1232E-01  0.5693E-01
   6.040  0.7071E-02  0.5708E-01
   6.060  0.3681E-02  0.5715E-01
   6.080  0.2206E-02  0.5719E-01
   6.100  0.2640E-02  0.5725E-01
   6.120  0.4921E-02  0.5734E-01
   6.140  0.8941E-02  0.5752E-01
   6.160  0.1455E-01  0.5781E-01
   6.180  0.2159E-01  0.5825E-01
   6.200  0.2989E-01  0.5884E-01
   6.220  0.3929E-01  0.5963E-01
   6.240  0.4968E-01  0.6062E-01
   6.260  0.6101E-01  0.6184E-01
   6.280  0.7332E-01  0.6331E-01
   6.300  0.8672E-01  0.6504E-01
   6.320  0.1014E+00  0.6707E-01
   6.340  0.1178E+00  0.6943E-01
   6.360  0.1363E+00  0.7216E-01
   6.380  0.1573E+00  0.7530E-01
   6.400  0.1815E+00  0.7893E-01
   6.420  0.2094E+00  0.8312E-01
   6.440  0.2417E+00  0.8795E-01
   6.460  0.2788E+00  0.9353E-01
   6.480  0.3213E+00  0.9996E-01
   6.500  0.3696E+00  0.1073E+00
   6.520  0.4239E+00  0.1158E+00
   6.540  0.4845E+00  0.1255E+00
   6.560  0.5515E+00  0.1365E+00
   6.580  0.6249E+00  0.1490E+00
   6.600  0.7045E+00  0.1631E+00
   6.620  0.7901E+00  0.1789E+00
   6.640  0.8816E+00  0.1966E+00
   6.660  0.9784E+00  0.2161E+00
   6.680  0.1080E+01  0.2377E+00
   6.700  0.1187E+01  0.2615E+00
   6.720  0.1297E+01  0.2874E+00
   6.740  0.1411E+01  0.3156E+00
   6.760  0.1527E+01  0.3462E+00
   6.780  0.1645E+01  0.3791E+00
   6.800  0.1763E+01  0.4144E+00
   6.820  0.1881E+01  0.4520E+00
   6.840  0.1998E+01  0.4919E+00
   6.860  0.2111E+01  0.5342E+00
   6.880  0.2221E+01  0.5786E+00
   6.900  0.2326E+01  0.6251E+00
   6.920  0.2425E+01  0.6736E+00
   6.940  0.2518E+01  0.7240E+00
   6.960  0.2605E+01  0.7761E+00
   6.980  0.2685E+01  0.8298E+00
   7.000  0.2759E+01  0.8849E+00
   7.020  0.2827E+01  0.9415E+00
   7.040  0.2889E+01  0.9993E+00
   7.060  0.2946E+01  0.1058E+01
   7.080  0.2998E+01  0.1118E+01
   7.100  0.3045E+01  0.1179E+01
   7.120  0.3089E+01  0.1241E+01
   7.140  0.3128E+01  0.1303E+01
   7.160  0.3162E+01  0.1367E+01
   7.180  0.3190E+01  0.1430E+01
   7.200  0.3212E+01  0.1495E+01
   7.220  0.3226E+01  0.1559E+01
   7.240  0.3231E+01  0.1624E+01
   7.260  0.3227E+01  0.1688E+01
   7.280  0.3212E+01  0.1753E+01
   7.300  0.3185E+01  0.1816E+01
   7.320  0.3147E+01  0.1879E+01
   7.340  0.3096E+01  0.1941E+01
   7.360  0.3035E+01  0.2002E+01
   7.380  0.2962E+01  0.2061E+01
   7.400  0.2881E+01  0.2119E+01
   7.420  0.2792E+01  0.2175E+01
   7.440  0.2696E+01  0.2228E+01
   7.460  0.2597E+01  0.2280E+01
   7.480  0.2497E+01  0.2330E+01
   7.500  0.2397E+01  0.2378E+01
   7.520  0.2301E+01  0.2424E+01
   7.540  0.2211E+01  0.2469E+01
   7.560  0.2128E+01  0.2511E+01
   7.580  0.2056E+01  0.2552E+01
   7.600  0.1997E+01  0.2592E+01
   7.620  0.1951E+01  0.2631E+01
   7.640  0.1921E+01  0.2670E+01
   7.660  0.1908E+01  0.2708E+01
   7.680  0.1911E+01  0.2746E+01
   7.700  0.1931E+01  0.2785E+01
   7.720  0.1967E+01  0.2824E+01
   7.740  0.2016E+01  0.2864E+01
   7.760  0.2077E+01  0.2906E+01
   7.780  0.2147E+01  0.2949E+01
   7.800  0.2221E+01  0.2993E+01
   7.820  0.2298E+01  0.3039E+01
   7.840  0.2373E+01  0.3087E+01
   7.860  0.2442E+01  0.3135E+01
   7.880  0.2503E+01  0.3185E+01
   7.900  0.2553E+01  0.3236E+01
   7.920  0.2591E+01  0.3288E+01
   7.940  0.2616E+01  0.3341E+01
   7.960  0.2628E+01  0.3393E+01
   7.980  0.2629E+01  0.3446E+01
   8.000  0.2620E+01  0.3498E+01
   8.020  0.2605E+01  0.3550E+01
   8.040  0.2587E+01  0.3602E+01
   8.060  0.2568E+01  0.3653E+01
   8.080  0.2552E+01  0.3704E+01
   8.100  0.2543E+01  0.3755E+01
   8.120  0.2543E+01  0.3806E+01
   8.140  0.2555E+01  0.3857E+01
   8.160  0.2581E+01  0.3909E+01
   8.180  0.2621E+01  0.3961E+01
   8.200  0.2678E+01  0.4015E+01
   8.220  0.2751E+01  0.4070E+01
   8.240  0.2839E+01  0.4127E+01
   8.260  0.2942E+01  0.4185E+01
   8.280  0.3058E+01  0.4247E+01
   8.300  0.3185E+01  0.4310E+01
   8.320  0.3319E+01  0.4377E+01
   8.340  0.3458E+01  0.4446E+01
   8.360  0.3598E+01  0.4518E+01
   8.380  0.3733E+01  0.4592E+01
   8.400  0.3860E+01  0.4670E+01
   8.420  0.3973E+01  0.4749E+01
   8.440  0.4067E+01  0.4830E+01
   8.460  0.4137E+01  0.4913E+01
   8.480  0.4181E+01  0.4997E+01
   8.500  0.4194E+01  0.5081E+01
   8.520  0.4174E+01  0.5164E+01
   8.540  0.4121E+01  0.5247E+01
   8.560  0.4036E+01  0.5327E+01
   8.580  0.3920E+01  0.5406E+01
   8.600  0.3778E+01  0.5481E+01
   8.620  0.3614E+01  0.5554E+01
   8.640  0.3434E+01  0.5622E+01
   8.660  0.3245E+01  0.5687E+01
   8.680  0.3053E+01  0.5748E+01
   8.700  0.2866E+01  0.5805E+01
   8.720  0.2689E+01  0.5859E+01
   8.740  0.2529E+01  0.5910E+01
   8.760  0.2389E+01  0.5958E+01
   8.780  0.2274E+01  0.6003E+01
   8.800  0.2185E+01  0.6047E+01
   8.820  0.2123E+01  0.6089E+01
   8.840  0.2089E+01  0.6131E+01
   8.860  0.2080E+01  0.6173E+01
   8.880  0.2096E+01  0.6215E+01
   8.900  0.2133E+01  0.6257E+01
   8.920  0.2190E+01  0.6301E+01
   8.940  0.2263E+01  0.6346E+01
   8.960  0.2349E+01  0.6393E+01
   8.980  0.2447E+01  0.6442E+01
   9.000  0.2555E+01  0.6493E+01
   9.020  0.2669E+01  0.6547E+01
   9.040  0.2788E+01  0.6602E+01
   9.060  0.2910E+01  0.6661E+01
   9.080  0.3034E+01  0.6721E+01
   9.100  0.3157E+01  0.6784E+01
   9.120  0.3276E+01  0.6850E+01
   9.140  0.3388E+01  0.6918E+01
   9.160  0.3490E+01  0.6988E+01
   9.180  0.3579E+01  0.7059E+01
   9.200  0.3650E+01  0.7132E+01
   9.220  0.3700E+01  0.7206E+01
   9.240  0.3725E+01  0.7281E+01
   9.260  0.3723E+01  0.7355E+01
   9.280  0.3692E+01  0.7429E+01
   9.300  0.3630E+01  0.7502E+01
   9.320  0.3539E+01  0.7572E+01
   9.340  0.3419E+01  0.7641E+01
   9.360  0.3275E+01  0.7706E+01
   9.380  0.3110E+01  0.7768E+01
   9.400  0.2931E+01  0.7827E+01
   9.420  0.2742E+01  0.7882E+01
   9.440  0.2553E+01  0.7933E+01
   9.460  0.2369E+01  0.7980E+01
   9.480  0.2199E+01  0.8024E+01
   9.500  0.2049E+01  0.8065E+01
   9.520  0.1924E+01  0.8104E+01
   9.540  0.1831E+01  0.8140E+01
   9.560  0.1772E+01  0.8176E+01
   9.580  0.1749E+01  0.8211E+01
   9.600  0.1764E+01  0.8246E+01
   9.620  0.1814E+01  0.8282E+01
   9.640  0.1899E+01  0.8320E+01
   9.660  0.2013E+01  0.8361E+01
   9.680  0.2152E+01  0.8404E+01
   9.700  0.2310E+01  0.8450E+01
   9.720  0.2481E+01  0.8499E+01
   9.740  0.2658E+01  0.8553E+01
   9.760  0.2834E+01  0.8609E+01
   9.780  0.3004E+01  0.8669E+01
   9.800  0.3160E+01  0.8733E+01
   9.820  0.3300E+01  0.8799E+01
   9.840  0.3417E+01  0.8867E+01
   9.860  0.3511E+01  0.8937E+01
   9.880  0.3578E+01  0.9009E+01
   9.900  0.3619E+01  0.9081E+01
   9.920  0.3634E+01  0.9154E+01
   9.940  0.3623E+01  0.9226E+01
   9.960  0.3589E+01  0.9298E+01
   9.980  0.3533E+01  0.9369E+01
  10.000  0.3459E+01  0.9438E+01
  10.020  0.3367E+01  0.9505E+01
  10.040  0.3262E+01  0.9570E+01
  10.060  0.3144E+01  0.9633E+01
  10.080  0.3016E+01  0.9694E+01
  10.100  0.2880E+01  0.9751E+01
  10.120  0.2736E+01  0.9806E+01
  10.140  0.2587E+01  0.9858E+01
  10.160  0.2433E+01  0.9906E+01
  10.180  0.2277E+01  0.9952E+01
  10.200  0.2120E+01  0.9994E+01
  10.220  0.1963E+01  0.1003E+02
  10.240  0.1809E+01  0.1007E+02
  10.260  0.1659E+01  0.1010E+02
  10.280  0.1515E+01  0.1013E+02
  10.300  0.1380E+01  0.1016E+02
  10.320  0.1254E+01  0.1019E+02
  10.340  0.1141E+01  0.1021E+02
  10.360  0.1040E+01  0.1023E+02
  10.380  0.9529E+00  0.1025E+02
  10.400  0.8797E+00  0.1027E+02
  10.420  0.8201E+00  0.1028E+02
  10.440  0.7733E+00  0.1030E+02
  10.460  0.7380E+00  0.1031E+02
  10.480  0.7126E+00  0.1033E+02
  10.500  0.6953E+00  0.1034E+02
  10.520  0.6839E+00  0.1035E+02
  10.540  0.6765E+00  0.1037E+02
  10.560  0.6710E+00  0.1038E+02
  10.580  0.6658E+00  0.1039E+02
  10.600  0.6594E+00  0.1041E+02
  10.620  0.6505E+00  0.1042E+02
  10.640  0.6385E+00  0.1043E+02
  10.660  0.6228E+00  0.1045E+02
  10.680  0.6034E+00  0.1046E+02
  10.700  0.5805E+00  0.1047E+02
  10.720  0.5545E+00  0.1048E+02
  10.740  0.5259E+00  0.1049E+02
  10.760  0.4957E+00  0.1050E+02
  10.780  0.4647E+00  0.1051E+02
  10.800  0.4338E+00  0.1052E+02
  10.820  0.4038E+00  0.1053E+02
  10.840  0.3757E+00  0.1054E+02
  10.860  0.3501E+00  0.1054E+02
  10.880  0.3277E+00  0.1055E+02
  10.900  0.3088E+00  0.1055E+02
  10.920  0.2939E+00  0.1056E+02
  10.940  0.2828E+00  0.1057E+02
  10.960  0.2755E+00  0.1057E+02
  10.980  0.2717E+00  0.1058E+02
  11.000  0.2707E+00  0.1058E+02
  11.020  0.2718E+00  0.1059E+02
  11.040  0.2742E+00  0.1059E+02
  11.060  0.2771E+00  0.1060E+02
  11.080  0.2794E+00  0.1060E+02
  11.100  0.2804E+00  0.1061E+02
  11.120  0.2792E+00  0.1062E+02
  11.140  0.2753E+00  0.1062E+02
  11.160  0.2682E+00  0.1063E+02
  11.180  0.2578E+00  0.1063E+02
  11.200  0.2440E+00  0.1064E+02
  11.220  0.2272E+00  0.1064E+02
  11.240  0.2078E+00  0.1065E+02
  11.260  0.1863E+00  0.1065E+02
  11.280  0.1635E+00  0.1065E+02
  11.300  0.1400E+00  0.1066E+02
  11.320  0.1166E+00  0.1066E+02
  11.340  0.9399E-01  0.1066E+02
  11.360  0.7273E-01  0.1066E+02
  11.380  0.5330E-01  0.1066E+02
  11.400  0.3605E-01  0.1066E+02
  11.420  0.2119E-01  0.1066E+02
  11.440  0.8787E-02  0.1066E+02
  11.460 -0.1170E-02  0.1066E+02
  11.480 -0.8807E-02  0.1066E+02
  11.500 -0.1430E-01  0.1066E+02
  11.520 -0.1788E-01  0.1066E+02
  11.540 -0.1978E-01  0.1066E+02
  11.560 -0.2023E-01  0.1066E+02
  11.580 -0.1945E-01  0.1066E+02
  11.600 -0.1760E-01  0.1066E+02
  11.620 -0.1486E-01  0.1066E+02
  11.640 -0.1132E-01  0.1066E+02
  11.660 -0.7085E-02  0.1066E+02
  11.680 -0.2219E-02  0.1066E+02
  11.700  0.3210E-02  0.1066E+02
  11.720  0.9135E-02  0.1066E+02
  11.740  0.1547E-01  0.1066E+02
  11.760  0.2211E-01  0.1066E+02
  11.780  0.2891E-01  0.1066E+02
  11.800  0.3571E-01  0.1066E+02
  11.820  0.4231E-01  0.1066E+02
  11.840  0.4848E-01  0.1066E+02
  11.860  0.5399E-01  0.1067E+02
  11.880  0.5859E-01  0.1067E+02
  11.900  0.6207E-01  0.1067E+02
  11.920  0.6421E-01  0.1067E+02
  11.940  0.6485E-01  0.1067E+02
  11.960  0.6389E-01  0.1067E+02
  11.980  0.6129E-01  0.1067E+02
  12.000  0.5709E-01  0.1067E+02
  12.020  0.5142E-01  0.1068E+02
  12.040  0.4449E-01  0.1068E+02
  12.060  0.3660E-01  0.1068E+02
  12.080  0.2812E-01  0.1068E+02
  12.100  0.1954E-01  0.1068E+02
  12.120  0.1136E-01  0.1068E+02
  12.140  0.4172E-02  0.1068E+02
  12.160 -0.1403E-02  0.1068E+02
  12.180 -0.4733E-02  0.1068E+02
  12.200 -0.5189E-02  0.1068E+02
  12.220 -0.2174E-02  0.1068E+02
  12.240  0.4847E-02  0.1068E+02
  12.260  0.1633E-01  0.1068E+02
  12.280  0.3260E-01  0.1068E+02
  12.300  0.5386E-01  0.1068E+02
  12.320  0.8015E-01  0.1068E+02
  12.340  0.1113E+00  0.1068E+02
  12.360  0.1471E+00  0.1069E+02
  12.380  0.1870E+00  0.1069E+02
  12.400  0.2305E+00  0.1069E+02
  12.420  0.2766E+00  0.1070E+02
  12.440  0.3248E+00  0.1071E+02
  12.460  0.3740E+00  0.1071E+02
  12.480  0.4233E+00  0.1072E+02
  12.500  0.4719E+00  0.1073E+02
  12.520  0.5188E+00  0.1074E+02
  12.540  0.5634E+00  0.1075E+02
  12.560  0.6049E+00  0.1077E+02
  12.580  0.6426E+00  0.1078E+02
  12.600  0.6760E+00  0.1079E+02
  12.620  0.7046E+00  0.1081E+02
  12.640  0.7277E+00  0.1082E+02
  12.660  0.7450E+00  0.1084E+02
  12.680  0.7559E+00  0.1085E+02
  12.700  0.7601E+00  0.1087E+02
  12.720  0.7573E+00  0.1088E+02
  12.740  0.7471E+00  0.1090E+02
  12.760  0.7294E+00  0.1091E+02
  12.780  0.7043E+00  0.1093E+02
  12.800  0.6722E+00  0.1094E+02
  12.820  0.6334E+00  0.1095E+02
  12.840  0.5890E+00  0.1096E+02
  12.860  0.5400E+00  0.1097E+02
  12.880  0.4879E+00  0.1098E+02
  12.900  0.4344E+00  0.1099E+02
  12.920  0.3813E+00  0.1100E+02
  12.940  0.3304E+00  0.1101E+02
  12.960  0.2839E+00  0.1101E+02
  12.980  0.2434E+00  0.1102E+02
  13.000  0.2106E+00  0.1102E+02
  13.020  0.1869E+00  0.1103E+02
  13.040  0.1732E+00  0.1103E+02
  13.060  0.1699E+00  0.1103E+02
  13.080  0.1770E+00  0.1104E+02
  13.100  0.1941E+00  0.1104E+02
  13.120  0.2201E+00  0.1104E+02
  13.140  0.2536E+00  0.1105E+02
  13.160  0.2927E+00  0.1105E+02
  13.180  0.3353E+00  0.1106E+02
  13.200  0.3792E+00  0.1107E+02
  13.220  0.4220E+00  0.1108E+02
  13.240  0.4613E+00  0.1109E+02
  13.260  0.4952E+00  0.1110E+02
  13.280  0.5218E+00  0.1111E+02
  13.300  0.5398E+00  0.1112E+02
  13.320  0.5481E+00  0.1113E+02
  13.340  0.5464E+00  0.1114E+02
  13.360  0.5347E+00  0.1115E+02
  13.380  0.5135E+00  0.1116E+02
  13.400  0.4838E+00  0.1117E+02
  13.420  0.4469E+00  0.1118E+02
  13.440  0.4043E+00  0.1119E+02
  13.460  0.3577E+00  0.1119E+02
  13.480  0.3089E+00  0.1120E+02
  13.500  0.2596E+00  0.1121E+02
  13.520  0.2112E+00  0.1121E+02
  13.540  0.1652E+00  0.1121E+02
  13.560  0.1227E+00  0.1122E+02
  13.580  0.8458E-01  0.1122E+02
  13.600  0.5134E-01  0.1122E+02
  13.620  0.2339E-01  0.1122E+02
  13.640  0.8530E-03  0.1122E+02
  13.660 -0.1628E-01  0.1122E+02
  13.680 -0.2816E-01  0.1122E+02
  13.700 -0.3502E-01  0.1122E+02
  13.720 -0.3712E-01  0.1122E+02
  13.740 -0.3476E-01  0.1122E+02
  13.760 -0.2824E-01  0.1122E+02
  13.780 -0.1784E-01  0.1122E+02
  13.800 -0.3891E-02  0.1121E+02
  13.820  0.1329E-01  0.1122E+02
  13.840  0.3332E-01  0.1122E+02
  13.860  0.5577E-01  0.1122E+02
  13.880  0.8011E-01  0.1122E+02
  13.900  0.1057E+00  0.1122E+02
  13.920  0.1320E+00  0.1122E+02
  13.940  0.1580E+00  0.1123E+02
  13.960  0.1832E+00  0.1123E+02
  13.980  0.2065E+00  0.1123E+02
  14.000  0.2274E+00  0.1124E+02
  14.020  0.2452E+00  0.1124E+02
  14.040  0.2593E+00  0.1125E+02
  14.060  0.2695E+00  0.1125E+02
  14.080  0.2757E+00  0.1126E+02
  14.100  0.2781E+00  0.1127E+02
  14.120  0.2769E+00  0.1127E+02
  14.140  0.2730E+00  0.1128E+02
  14.160  0.2669E+00  0.1128E+02
  14.180  0.2597E+00  0.1129E+02
  14.200  0.2523E+00  0.1129E+02
  14.220  0.2456E+00  0.1130E+02
  14.240  0.2403E+00  0.1130E+02
  14.260  0.2372E+00  0.1131E+02
  14.280  0.2366E+00  0.1131E+02
  14.300  0.2386E+00  0.1132E+02
  14.320  0.2432E+00  0.1132E+02
  14.340  0.2500E+00  0.1133E+02
  14.360  0.2582E+00  0.1133E+02
  14.380  0.2672E+00  0.1134E+02
  14.400  0.2761E+00  0.1134E+02
  14.420  0.2840E+00  0.1135E+02
  14.440  0.2899E+00  0.1135E+02
  14.460  0.2931E+00  0.1136E+02
  14.480  0.2930E+00  0.1137E+02
  14.500  0.2891E+00  0.1137E+02
  14.520  0.2814E+00  0.1138E+02
  14.540  0.2698E+00  0.1138E+02
  14.560  0.2546E+00  0.1139E+02
  14.580  0.2362E+00  0.1139E+02
  14.600  0.2152E+00  0.1140E+02
  14.620  0.1923E+00  0.1140E+02
  14.640  0.1682E+00  0.1140E+02
  14.660  0.1435E+00  0.1141E+02
  14.680  0.1189E+00  0.1141E+02
  14.700  0.9509E-01  0.1141E+02
  14.720  0.7241E-01  0.1141E+02
  14.740  0.5130E-01  0.1141E+02
  14.760  0.3204E-01  0.1141E+02
  14.780  0.1485E-01  0.1141E+02
  14.800 -0.1233E-03  0.1141E+02
  14.820 -0.1276E-01  0.1141E+02
  14.840 -0.2295E-01  0.1141E+02
  14.860 -0.3056E-01  0.1141E+02
  14.880 -0.3542E-01  0.1141E+02
  14.900 -0.3733E-01  0.1141E+02
  14.920 -0.3601E-01  0.1141E+02
  14.940 -0.3116E-01  0.1141E+02
  14.960 -0.2243E-01  0.1141E+02
  14.980 -0.9486E-02  0.1141E+02
  15.000  0.7996E-02  0.1141E+02
  15.020  0.3026E-01  0.1141E+02
  15.040  0.5745E-01  0.1141E+02
  15.060  0.8957E-01  0.1141E+02
  15.080  0.1265E+00  0.1142E+02
  15.100  0.1677E+00  0.1142E+02
  15.120  0.2128E+00  0.1142E+02
  15.140  0.2610E+00  0.1143E+02
  15.160  0.3112E+00  0.1143E+02
  15.180  0.3624E+00  0.1144E+02
  15.200  0.4133E+00  0.1145E+02
  15.220  0.4628E+00  0.1146E+02
  15.240  0.5094E+00  0.1147E+02
  15.260  0.5519E+00  0.1148E+02
  15.280  0.5893E+00  0.1149E+02
  15.300  0.6207E+00  0.1150E+02
  15.320  0.6452E+00  0.1152E+02
  15.340  0.6623E+00  0.1153E+02
  15.360  0.6718E+00  0.1154E+02
  15.380  0.6737E+00  0.1156E+02
  15.400  0.6680E+00  0.1157E+02
  15.420  0.6551E+00  0.1158E+02
  15.440  0.6355E+00  0.1160E+02
  15.460  0.6100E+00  0.1161E+02
  15.480  0.5792E+00  0.1162E+02
  15.500  0.5439E+00  0.1163E+02
  15.520  0.5050E+00  0.1164E+02
  15.540  0.4634E+00  0.1165E+02
  15.560  0.4199E+00  0.1166E+02
  15.580  0.3753E+00  0.1167E+02
  15.600  0.3306E+00  0.1167E+02
  15.620  0.2864E+00  0.1168E+02
  15.640  0.2434E+00  0.1168E+02
  15.660  0.2024E+00  0.1169E+02
  15.680  0.1639E+00  0.1169E+02
  15.700  0.1283E+00  0.1169E+02
  15.720  0.9614E-01  0.1170E+02
  15.740  0.6765E-01  0.1170E+02
  15.760  0.4304E-01  0.1170E+02
  15.780  0.2243E-01  0.1170E+02
  15.800  0.5841E-02  0.1170E+02
  15.820 -0.6803E-02  0.1170E+02
  15.840 -0.1564E-01  0.1170E+02
  15.860 -0.2086E-01  0.1170E+02
  15.880 -0.2271E-01  0.1170E+02
  15.900 -0.2146E-01  0.1170E+02
  15.920 -0.1740E-01  0.1170E+02
  15.940 -0.1080E-01  0.1170E+02
  15.960 -0.1927E-02  0.1170E+02
  15.980  0.9002E-02  0.1170E+02
  16.000  0.2181E-01  0.1170E+02
  16.020  0.3640E-01  0.1170E+02
  16.040  0.5271E-01  0.1170E+02
  16.060  0.7077E-01  0.1170E+02
  16.080  0.9069E-01  0.1170E+02
  16.100  0.1126E+00  0.1170E+02
  16.120  0.1367E+00  0.1171E+02
  16.140  0.1631E+00  0.1171E+02
  16.160  0.1921E+00  0.1171E+02
  16.180  0.2236E+00  0.1172E+02
  16.200  0.2576E+00  0.1172E+02
  16.220  0.2939E+00  0.1173E+02
  16.240  0.3321E+00  0.1174E+02
  16.260  0.3716E+00  0.1174E+02
  16.280  0.4115E+00  0.1175E+02
  16.300  0.4508E+00  0.1176E+02
  16.320  0.4882E+00  0.1177E+02
  16.340  0.5225E+00  0.1178E+02
  16.360  0.5523E+00  0.1179E+02
  16.380  0.5762E+00  0.1180E+02
  16.400  0.5932E+00  0.1182E+02
  16.420  0.6023E+00  0.1183E+02
  16.440  0.6028E+00  0.1184E+02
  16.460  0.5945E+00  0.1185E+02
  16.480  0.5774E+00  0.1186E+02
  16.500  0.5522E+00  0.1187E+02
  16.520  0.5195E+00  0.1188E+02
  16.540  0.4806E+00  0.1189E+02
  16.560  0.4369E+00  0.1190E+02
  16.580  0.3900E+00  0.1191E+02
  16.600  0.3415E+00  0.1192E+02
  16.620  0.2929E+00  0.1192E+02
  16.640  0.2459E+00  0.1193E+02
  16.660  0.2019E+00  0.1193E+02
  16.680  0.1619E+00  0.1194E+02
  16.700  0.1270E+00  0.1194E+02
  16.720  0.9778E-01  0.1194E+02
  16.740  0.7475E-01  0.1194E+02
  16.760  0.5811E-01  0.1194E+02
  16.780  0.4787E-01  0.1194E+02
  16.800  0.4386E-01  0.1194E+02
  16.820  0.4575E-01  0.1195E+02
  16.840  0.5308E-01  0.1195E+02
  16.860  0.6530E-01  0.1195E+02
  16.880  0.8178E-01  0.1195E+02
  16.900  0.1018E+00  0.1195E+02
  16.920  0.1247E+00  0.1195E+02
  16.940  0.1498E+00  0.1196E+02
  16.960  0.1763E+00  0.1196E+02
  16.980  0.2036E+00  0.1196E+02
  17.000  0.2311E+00  0.1197E+02
  17.020  0.2584E+00  0.1197E+02
  17.040  0.2850E+00  0.1198E+02
  17.060  0.3106E+00  0.1199E+02
  17.080  0.3350E+00  0.1199E+02
  17.100  0.3581E+00  0.1200E+02
  17.120  0.3798E+00  0.1201E+02
  17.140  0.4001E+00  0.1202E+02
  17.160  0.4188E+00  0.1202E+02
  17.180  0.4359E+00  0.1203E+02
  17.200  0.4511E+00  0.1204E+02
  17.220  0.4642E+00  0.1205E+02
  17.240  0.4748E+00  0.1206E+02
  17.260  0.4825E+00  0.1207E+02
  17.280  0.4867E+00  0.1208E+02
  17.300  0.4871E+00  0.1209E+02
  17.320  0.4831E+00  0.1210E+02
  17.340  0.4744E+00  0.1211E+02
  17.360  0.4608E+00  0.1212E+02
  17.380  0.4422E+00  0.1213E+02
  17.400  0.4189E+00  0.1214E+02
  17.420  0.3912E+00  0.1214E+02
  17.440  0.3596E+00  0.1215E+02
  17.460  0.3250E+00  0.1216E+02
  17.480  0.2881E+00  0.1216E+02
  17.500  0.2500E+00  0.1217E+02
  17.520  0.2117E+00  0.1217E+02
  17.540  0.1741E+00  0.1218E+02
  17.560  0.1381E+00  0.1218E+02
  17.580  0.1044E+00  0.1218E+02
  17.600  0.7371E-01  0.1218E+02
  17.620  0.4649E-01  0.1218E+02
  17.640  0.2305E-01  0.1218E+02
  17.660  0.3571E-02  0.1218E+02
  17.680 -0.1188E-01  0.1218E+02
  17.700 -0.2332E-01  0.1218E+02
  17.720 -0.3085E-01  0.1218E+02
  17.740 -0.3458E-01  0.1218E+02
  17.760 -0.3464E-01  0.1218E+02
  17.780 -0.3119E-01  0.1218E+02
  17.800 -0.2434E-01  0.1218E+02
  17.820 -0.1425E-01  0.1218E+02
  17.840 -0.1073E-02  0.1218E+02
  17.860  0.1500E-01  0.1218E+02
  17.880  0.3373E-01  0.1218E+02
  17.900  0.5480E-01  0.1218E+02
  17.920  0.7780E-01  0.1218E+02
  17.940  0.1022E+00  0.1218E+02
  17.960  0.1276E+00  0.1219E+02
  17.980  0.1532E+00  0.1219E+02
  18.000  0.1783E+00  0.1219E+02
  18.020  0.2024E+00  0.1220E+02
  18.040  0.2247E+00  0.1220E+02
  18.060  0.2448E+00  0.1221E+02
  18.080  0.2623E+00  0.1221E+02
  18.100  0.2768E+00  0.1222E+02
  18.120  0.2885E+00  0.1222E+02
  18.140  0.2974E+00  0.1223E+02
  18.160  0.3039E+00  0.1224E+02
  18.180  0.3085E+00  0.1224E+02
  18.200  0.3117E+00  0.1225E+02
  18.220  0.3143E+00  0.1225E+02
  18.240  0.3170E+00  0.1226E+02
  18.260  0.3202E+00  0.1227E+02
  18.280  0.3244E+00  0.1227E+02
  18.300  0.3298E+00  0.1228E+02
  18.320  0.3365E+00  0.1229E+02
  18.340  0.3442E+00  0.1229E+02
  18.360  0.3524E+00  0.1230E+02
  18.380  0.3606E+00  0.1231E+02
  18.400  0.3678E+00  0.1232E+02
  18.420  0.3733E+00  0.1232E+02
  18.440  0.3761E+00  0.1233E+02
  18.460  0.3756E+00  0.1234E+02
  18.480  0.3711E+00  0.1235E+02
  18.500  0.3624E+00  0.1235E+02
  18.520  0.3494E+00  0.1236E+02
  18.540  0.3324E+00  0.1237E+02
  18.560  0.3120E+00  0.1237E+02
  18.580  0.2894E+00  0.1238E+02
  18.600  0.2658E+00  0.1238E+02
  18.620  0.2426E+00  0.1239E+02
  18.640  0.2216E+00  0.1239E+02
  18.660  0.2042E+00  0.1240E+02
  18.680  0.1923E+00  0.1240E+02
  18.700  0.1870E+00  0.1240E+02
  18.720  0.1896E+00  0.1241E+02
  18.740  0.2007E+00  0.1241E+02
  18.760  0.2207E+00  0.1242E+02
  18.780  0.2493E+00  0.1242E+02
  18.800  0.2859E+00  0.1243E+02
  18.820  0.3293E+00  0.1243E+02
  18.840  0.3782E+00  0.1244E+02
  18.860  0.4305E+00  0.1245E+02
  18.880  0.4844E+00  0.1246E+02
  18.900  0.5376E+00  0.1247E+02
  18.920  0.5881E+00  0.1248E+02
  18.940  0.6339E+00  0.1250E+02
  18.960  0.6733E+00  0.1251E+02
  18.980  0.7051E+00  0.1252E+02
  19.000  0.7282E+00  0.1254E+02
  19.020  0.7421E+00  0.1255E+02
  19.040  0.7468E+00  0.1257E+02
  19.060  0.7425E+00  0.1258E+02
  19.080  0.7300E+00  0.1260E+02
  19.100  0.7100E+00  0.1261E+02
  19.120  0.6838E+00  0.1262E+02
  19.140  0.6524E+00  0.1264E+02
  19.160  0.6171E+00  0.1265E+02
  19.180  0.5789E+00  0.1266E+02
  19.200  0.5390E+00  0.1267E+02
  19.220  0.4982E+00  0.1268E+02
  19.240  0.4573E+00  0.1269E+02
  19.260  0.4169E+00  0.1270E+02
  19.280  0.3776E+00  0.1271E+02
  19.300  0.3398E+00  0.1271E+02
  19.320  0.3038E+00  0.1272E+02
  19.340  0.2699E+00  0.1273E+02
  19.360  0.2383E+00  0.1273E+02
  19.380  0.2092E+00  0.1273E+02
  19.400  0.1828E+00  0.1274E+02
  19.420  0.1592E+00  0.1274E+02
  19.440  0.1383E+00  0.1274E+02
  19.460  0.1203E+00  0.1275E+02
  19.480  0.1051E+00  0.1275E+02
  19.500  0.9245E-01  0.1275E+02
  19.520  0.8229E-01  0.1275E+02
  19.540  0.7444E-01  0.1275E+02
  19.560  0.6869E-01  0.1275E+02
  19.580  0.6489E-01  0.1276E+02
  19.600  0.6292E-01  0.1276E+02
  19.620  0.6272E-01  0.1276E+02
  19.640  0.6433E-01  0.1276E+02
  19.660  0.6785E-01  0.1276E+02
  19.680  0.7345E-01  0.1276E+02
  19.700  0.8138E-01  0.1276E+02
  19.720  0.9189E-01  0.1277E+02
  19.740  0.1052E+00  0.1277E+02
  19.760  0.1216E+00  0.1277E+02
  19.780  0.1411E+00  0.1277E+02
  19.800  0.1637E+00  0.1278E+02
  19.820  0.1891E+00  0.1278E+02
  19.840  0.2172E+00  0.1278E+02
  19.860  0.2473E+00  0.1279E+02
  19.880  0.2786E+00  0.1280E+02
  19.900  0.3105E+00  0.1280E+02
  19.920  0.3419E+00  0.1281E+02
  19.940  0.3719E+00  0.1282E+02
  19.960  0.3995E+00  0.1282E+02
  19.980  0.4238E+00  0.1283E+02
  20.000  0.4441E+00  0.1284E+02
  20.020  0.4599E+00  0.1285E+02
  20.040  0.4708E+00  0.1286E+02
  20.060  0.4768E+00  0.1287E+02
  20.080  0.4782E+00  0.1288E+02
  20.100  0.4755E+00  0.1289E+02
  20.120  0.4694E+00  0.1290E+02
  20.140  0.4609E+00  0.1291E+02
  20.160  0.4512E+00  0.1292E+02
  20.180  0.4415E+00  0.1292E+02
  20.200  0.4329E+00  0.1293E+02
  20.220  0.4267E+00  0.1294E+02
  20.240  0.4238E+00  0.1295E+02
  20.260  0.4249E+00  0.1296E+02
  20.280  0.4306E+00  0.1297E+02
  20.300  0.4409E+00  0.1298E+02
  20.320  0.4556E+00  0.1299E+02
  20.340  0.4742E+00  0.1300E+02
  20.360  0.4955E+00  0.1300E+02
  20.380  0.5185E+00  0.1302E+02
  20.400  0.5416E+00  0.1303E+02
  20.420  0.5632E+00  0.1304E+02
  20.440  0.5816E+00  0.1305E+02
  20.460  0.5953E+00  0.1306E+02
  20.480  0.6027E+00  0.1307E+02
  20.500  0.6027E+00  0.1309E+02
  20.520  0.5946E+00  0.1310E+02
  20.540  0.5778E+00  0.1311E+02
  20.560  0.5526E+00  0.1312E+02
  20.580  0.5192E+00  0.1313E+02
  20.600  0.4788E+00  0.1314E+02
  20.620  0.4325E+00  0.1315E+02
  20.640  0.3821E+00  0.1316E+02
  20.660  0.3291E+00  0.1316E+02
  20.680  0.2757E+00  0.1317E+02
  20.700  0.2238E+00  0.1317E+02
  20.720  0.1752E+00  0.1318E+02
  20.740  0.1319E+00  0.1318E+02
  20.760  0.9517E-01  0.1318E+02
  20.780  0.6651E-01  0.1318E+02
  20.800  0.4687E-01  0.1318E+02
  20.820  0.3694E-01  0.1318E+02
  20.840  0.3706E-01  0.1318E+02
  20.860  0.4724E-01  0.1319E+02
  20.880  0.6716E-01  0.1319E+02
  20.900  0.9614E-01  0.1319E+02
  20.920  0.1332E+00  0.1319E+02
  20.940  0.1772E+00  0.1319E+02
  20.960  0.2267E+00  0.1320E+02
  20.980  0.2799E+00  0.1320E+02
  21.000  0.3352E+00  0.1321E+02
  21.020  0.3908E+00  0.1322E+02
  21.040  0.4448E+00  0.1323E+02
  21.060  0.4958E+00  0.1324E+02
  21.080  0.5421E+00  0.1325E+02
  21.100  0.5825E+00  0.1326E+02
  21.120  0.6162E+00  0.1327E+02
  21.140  0.6424E+00  0.1329E+02
  21.160  0.6608E+00  0.1330E+02
  21.180  0.6714E+00  0.1331E+02
  21.200  0.6745E+00  0.1333E+02
  21.220  0.6705E+00  0.1334E+02
  21.240  0.6600E+00  0.1335E+02
  21.260  0.6438E+00  0.1337E+02
  21.280  0.6226E+00  0.1338E+02
  21.300  0.5971E+00  0.1339E+02
  21.320  0.5681E+00  0.1340E+02
  21.340  0.5360E+00  0.1341E+02
  21.360  0.5014E+00  0.1342E+02
  21.380  0.4648E+00  0.1343E+02
  21.400  0.4265E+00  0.1344E+02
  21.420  0.3869E+00  0.1345E+02
  21.440  0.3464E+00  0.1345E+02
  21.460  0.3056E+00  0.1346E+02
  21.480  0.2648E+00  0.1347E+02
  21.500  0.2248E+00  0.1347E+02
  21.520  0.1863E+00  0.1347E+02
  21.540  0.1502E+00  0.1348E+02
  21.560  0.1174E+00  0.1348E+02
  21.580  0.8883E-01  0.1348E+02
  21.600  0.6554E-01  0.1348E+02
  21.620  0.4844E-01  0.1348E+02
  21.640  0.3839E-01  0.1348E+02
  21.660  0.3611E-01  0.1348E+02
  21.680  0.4212E-01  0.1349E+02
  21.700  0.5674E-01  0.1349E+02
  21.720  0.7998E-01  0.1349E+02
  21.740  0.1116E+00  0.1349E+02
  21.760  0.1510E+00  0.1349E+02
  21.780  0.1975E+00  0.1350E+02
  21.800  0.2497E+00  0.1350E+02
  21.820  0.3065E+00  0.1351E+02
  21.840  0.3663E+00  0.1352E+02
  21.860  0.4272E+00  0.1352E+02
  21.880  0.4877E+00  0.1353E+02
  21.900  0.5460E+00  0.1355E+02
  21.920  0.6004E+00  0.1356E+02
  21.940  0.6495E+00  0.1357E+02
  21.960  0.6919E+00  0.1358E+02
  21.980  0.7268E+00  0.1360E+02
  22.000  0.7533E+00  0.1361E+02
  22.020  0.7711E+00  0.1363E+02
  22.040  0.7802E+00  0.1364E+02
  22.060  0.7809E+00  0.1366E+02
  22.080  0.7736E+00  0.1368E+02
  22.100  0.7594E+00  0.1369E+02
  22.120  0.7390E+00  0.1371E+02
  22.140  0.7139E+00  0.1372E+02
  22.160  0.6852E+00  0.1373E+02
  22.180  0.6542E+00  0.1375E+02
  22.200  0.6224E+00  0.1376E+02
  22.220  0.5907E+00  0.1377E+02
  22.240  0.5604E+00  0.1378E+02
  22.260  0.5324E+00  0.1379E+02
  22.280  0.5072E+00  0.1380E+02
  22.300  0.4853E+00  0.1381E+02
  22.320  0.4667E+00  0.1382E+02
  22.340  0.4513E+00  0.1383E+02
  22.360  0.4386E+00  0.1384E+02
  22.380  0.4280E+00  0.1385E+02
  22.400  0.4186E+00  0.1386E+02
  22.420  0.4095E+00  0.1387E+02
  22.440  0.3998E+00  0.1387E+02
  22.460  0.3885E+00  0.1388E+02
  22.480  0.3751E+00  0.1389E+02
  22.500  0.3589E+00  0.1390E+02
  22.520  0.3400E+00  0.1390E+02
  22.540  0.3183E+00  0.1391E+02
  22.560  0.2946E+00  0.1391E+02
  22.580  0.2697E+00  0.1392E+02
  22.600  0.2450E+00  0.1392E+02
  22.620  0.2218E+00  0.1393E+02
  22.640  0.2021E+00  0.1393E+02
  22.660  0.1875E+00  0.1394E+02
  22.680  0.1800E+00  0.1394E+02
  22.700  0.1810E+00  0.1394E+02
  22.720  0.1921E+00  0.1395E+02
  22.740  0.2142E+00  0.1395E+02
  22.760  0.2477E+00  0.1396E+02
  22.780  0.2928E+00  0.1396E+02
  22.800  0.3487E+00  0.1397E+02
  22.820  0.4143E+00  0.1398E+02
  22.840  0.4877E+00  0.1399E+02
  22.860  0.5665E+00  0.1400E+02
  22.880  0.6482E+00  0.1401E+02
  22.900  0.7295E+00  0.1403E+02
  22.920  0.8075E+00  0.1404E+02
  22.940  0.8789E+00  0.1406E+02
  22.960  0.9408E+00  0.1408E+02
  22.980  0.9906E+00  0.1410E+02
  23.000  0.1026E+01  0.1412E+02
  23.020  0.1046E+01  0.1414E+02
  23.040  0.1049E+01  0.1416E+02
  23.060  0.1035E+01  0.1418E+02
  23.080  0.1004E+01  0.1420E+02
  23.100  0.9589E+00  0.1422E+02
  23.120  0.8999E+00  0.1424E+02
  23.140  0.8295E+00  0.1426E+02
  23.160  0.7505E+00  0.1427E+02
  23.180  0.6654E+00  0.1428E+02
  23.200  0.5770E+00  0.1430E+02
  23.220  0.4883E+00  0.1431E+02
  23.240  0.4016E+00  0.1431E+02
  23.260  0.3194E+00  0.1432E+02
  23.280  0.2438E+00  0.1433E+02
  23.300  0.1765E+00  0.1433E+02
  23.320  0.1190E+00  0.1433E+02
  23.340  0.7218E-01  0.1433E+02
  23.360  0.3702E-01  0.1433E+02
  23.380  0.1397E-01  0.1433E+02
  23.400  0.3336E-02  0.1433E+02
  23.420  0.5161E-02  0.1433E+02
  23.440  0.1930E-01  0.1433E+02
  23.460  0.4538E-01  0.1434E+02
  23.480  0.8282E-01  0.1434E+02
  23.500  0.1308E+00  0.1434E+02
  23.520  0.1882E+00  0.1434E+02
  23.540  0.2537E+00  0.1435E+02
  23.560  0.3256E+00  0.1435E+02
  23.580  0.4019E+00  0.1436E+02
  23.600  0.4806E+00  0.1437E+02
  23.620  0.5592E+00  0.1438E+02
  23.640  0.6353E+00  0.1440E+02
  23.660  0.7063E+00  0.1441E+02
  23.680  0.7699E+00  0.1443E+02
  23.700  0.8241E+00  0.1444E+02
  23.720  0.8670E+00  0.1446E+02
  23.740  0.8974E+00  0.1448E+02
  23.760  0.9145E+00  0.1450E+02
  23.780  0.9183E+00  0.1451E+02
  23.800  0.9092E+00  0.1453E+02
  23.820  0.8881E+00  0.1455E+02
  23.840  0.8568E+00  0.1457E+02
  23.860  0.8170E+00  0.1458E+02
  23.880  0.7709E+00  0.1460E+02
  23.900  0.7208E+00  0.1461E+02
  23.920  0.6689E+00  0.1463E+02
  23.940  0.6174E+00  0.1464E+02
  23.960  0.5679E+00  0.1465E+02
  23.980  0.5221E+00  0.1466E+02
  24.000  0.4809E+00  0.1467E+02
  24.020  0.4452E+00  0.1468E+02
  24.040  0.4153E+00  0.1469E+02
  24.060  0.3912E+00  0.1470E+02
  24.080  0.3728E+00  0.1470E+02
  24.100  0.3596E+00  0.1471E+02
  24.120  0.3511E+00  0.1472E+02
  24.140  0.3468E+00  0.1472E+02
  24.160  0.3460E+00  0.1473E+02
  24.180  0.3480E+00  0.1474E+02
  24.200  0.3522E+00  0.1475E+02
  24.220  0.3579E+00  0.1475E+02
  24.240  0.3644E+00  0.1476E+02
  24.260  0.3710E+00  0.1477E+02
  24.280  0.3771E+00  0.1477E+02
  24.300  0.3819E+00  0.1478E+02
  24.320  0.3848E+00  0.1479E+02
  24.340  0.3853E+00  0.1480E+02
  24.360  0.3828E+00  0.1481E+02
  24.380  0.3770E+00  0.1481E+02
  24.400  0.3679E+00  0.1482E+02
  24.420  0.3553E+00  0.1483E+02
  24.440  0.3397E+00  0.1483E+02
  24.460  0.3216E+00  0.1484E+02
  24.480  0.3017E+00  0.1485E+02
  24.500  0.2810E+00  0.1485E+02
  24.520  0.2604E+00  0.1486E+02
  24.540  0.2411E+00  0.1486E+02
  24.560  0.2242E+00  0.1487E+02
  24.580  0.2108E+00  0.1487E+02
  24.600  0.2019E+00  0.1488E+02
  24.620  0.1982E+00  0.1488E+02
  24.640  0.2005E+00  0.1488E+02
  24.660  0.2091E+00  0.1489E+02
  24.680  0.2244E+00  0.1489E+02
  24.700  0.2464E+00  0.1490E+02
  24.720  0.2751E+00  0.1490E+02
  24.740  0.3101E+00  0.1491E+02
  24.760  0.3511E+00  0.1492E+02
  24.780  0.3975E+00  0.1492E+02
  24.800  0.4486E+00  0.1493E+02
  24.820  0.5036E+00  0.1494E+02
  24.840  0.5615E+00  0.1495E+02
  24.860  0.6212E+00  0.1497E+02
  24.880  0.6816E+00  0.1498E+02
  24.900  0.7411E+00  0.1499E+02
  24.920  0.7985E+00  0.1501E+02
  24.940  0.8523E+00  0.1503E+02
  24.960  0.9012E+00  0.1505E+02
  24.980  0.9437E+00  0.1506E+02
  25.000  0.9789E+00  0.1508E+02
