#  E (eV)   dos(E)     Int dos(E) EFermi =   13.108 eV
  -5.000 -0.4118E-81 -0.8236E-83
  -4.980 -0.4112E-81 -0.1646E-82
  -4.960 -0.4105E-81 -0.2467E-82
  -4.940 -0.4099E-81 -0.3287E-82
  -4.920 -0.4092E-81 -0.4105E-82
  -4.900 -0.4085E-81 -0.4922E-82
  -4.880 -0.4079E-81 -0.5738E-82
  -4.860 -0.4072E-81 -0.6552E-82
  -4.840 -0.4066E-81 -0.7366E-82
  -4.820 -0.4059E-81 -0.8177E-82
  -4.800 -0.4053E-81 -0.8988E-82
  -4.780 -0.4046E-81 -0.9797E-82
  -4.760 -0.4040E-81 -0.1061E-81
  -4.740 -0.4033E-81 -0.1141E-81
  -4.720 -0.4027E-81 -0.1222E-81
  -4.700 -0.4020E-81 -0.1302E-81
  -4.680 -0.4014E-81 -0.1382E-81
  -4.660 -0.4008E-81 -0.1463E-81
  -4.640 -0.4001E-81 -0.1543E-81
  -4.620 -0.3995E-81 -0.1622E-81
  -4.600 -0.3988E-81 -0.1702E-81
  -4.580 -0.3982E-81 -0.1782E-81
  -4.560 -0.3975E-81 -0.1861E-81
  -4.540 -0.3969E-81 -0.1941E-81
  -4.520 -0.3963E-81 -0.2020E-81
  -4.500 -0.3956E-81 -0.2099E-81
  -4.480 -0.3950E-81 -0.2178E-81
  -4.460 -0.3943E-81 -0.2257E-81
  -4.440 -0.3937E-81 -0.2336E-81
  -4.420 -0.3931E-81 -0.2414E-81
  -4.400 -0.3924E-81 -0.2493E-81
  -4.380 -0.3918E-81 -0.2571E-81
  -4.360 -0.3911E-81 -0.2649E-81
  -4.340 -0.3905E-81 -0.2728E-81
  -4.320 -0.3899E-81 -0.2805E-81
  -4.300 -0.3892E-81 -0.2883E-81
  -4.280 -0.3886E-81 -0.2961E-81
  -4.260 -0.3880E-81 -0.3039E-81
  -4.240 -0.3873E-81 -0.3116E-81
  -4.220 -0.3867E-81 -0.3193E-81
  -4.200 -0.3861E-81 -0.3271E-81
  -4.180 -0.3854E-81 -0.3348E-81
  -4.160 -0.3848E-81 -0.3425E-81
  -4.140 -0.3842E-81 -0.3502E-81
  -4.120 -0.3836E-81 -0.3578E-81
  -4.100 -0.3829E-81 -0.3655E-81
  -4.080 -0.3823E-81 -0.3731E-81
  -4.060 -0.3817E-81 -0.3808E-81
  -4.040 -0.3810E-81 -0.3884E-81
  -4.020 -0.3804E-81 -0.3960E-81
  -4.000 -0.3798E-81 -0.4036E-81
  -3.980 -0.3792E-81 -0.4112E-81
  -3.960 -0.3785E-81 -0.4187E-81
  -3.940 -0.3779E-81 -0.4263E-81
  -3.920 -0.3773E-81 -0.4338E-81
  -3.900 -0.3767E-81 -0.4414E-81
  -3.880 -0.3761E-81 -0.4489E-81
  -3.860 -0.3754E-81 -0.4564E-81
  -3.840 -0.3748E-81 -0.4639E-81
  -3.820 -0.3742E-81 -0.4714E-81
  -3.800 -0.3736E-81 -0.4789E-81
  -3.780 -0.3730E-81 -0.4863E-81
  -3.760 -0.3723E-81 -0.4938E-81
  -3.740 -0.3717E-81 -0.5012E-81
  -3.720 -0.3711E-81 -0.5086E-81
  -3.700 -0.3705E-81 -0.5160E-81
  -3.680 -0.3699E-81 -0.5234E-81
  -3.660 -0.3693E-81 -0.5308E-81
  -3.640 -0.3686E-81 -0.5382E-81
  -3.620 -0.3680E-81 -0.5456E-81
  -3.600 -0.3674E-81 -0.5529E-81
  -3.580 -0.3668E-81 -0.5602E-81
  -3.560 -0.3662E-81 -0.5676E-81
  -3.540 -0.3656E-81 -0.5749E-81
  -3.520 -0.3650E-81 -0.5822E-81
  -3.500 -0.3644E-81 -0.5895E-81
  -3.480 -0.3637E-81 -0.5967E-81
  -3.460 -0.3631E-81 -0.6040E-81
  -3.440 -0.3625E-81 -0.6112E-81
  -3.420 -0.3619E-81 -0.6185E-81
  -3.400 -0.3613E-81 -0.6257E-81
  -3.380 -0.3607E-81 -0.6329E-81
  -3.360 -0.3601E-81 -0.6401E-81
  -3.340 -0.3595E-81 -0.6473E-81
  -3.320 -0.3589E-81 -0.6545E-81
  -3.300 -0.3583E-81 -0.6617E-81
  -3.280 -0.3577E-81 -0.6688E-81
  -3.260 -0.3571E-81 -0.6760E-81
  -3.240 -0.3565E-81 -0.6831E-81
  -3.220 -0.3559E-81 -0.6902E-81
  -3.200 -0.3553E-81 -0.6973E-81
  -3.180 -0.3547E-81 -0.7044E-81
  -3.160 -0.3541E-81 -0.7115E-81
  -3.140 -0.3535E-81 -0.7186E-81
  -3.120 -0.3529E-81 -0.7256E-81
  -3.100 -0.3523E-81 -0.7327E-81
  -3.080 -0.3517E-81 -0.7397E-81
  -3.060 -0.3511E-81 -0.7467E-81
  -3.040 -0.3505E-81 -0.7537E-81
  -3.020 -0.3499E-81 -0.7607E-81
  -3.000 -0.3493E-81 -0.7677E-81
  -2.980 -0.3487E-81 -0.7747E-81
  -2.960 -0.3481E-81 -0.7816E-81
  -2.940 -0.3475E-81 -0.7886E-81
  -2.920 -0.3469E-81 -0.7955E-81
  -2.900 -0.3464E-81 -0.8025E-81
  -2.880 -0.3458E-81 -0.8094E-81
  -2.860 -0.3452E-81 -0.8163E-81
  -2.840 -0.3446E-81 -0.8232E-81
  -2.820 -0.3440E-81 -0.8301E-81
  -2.800 -0.3434E-81 -0.8369E-81
  -2.780 -0.3428E-81 -0.8438E-81
  -2.760 -0.3422E-81 -0.8506E-81
  -2.740 -0.3416E-81 -0.8575E-81
  -2.720 -0.3411E-81 -0.8643E-81
  -2.700 -0.3405E-81 -0.8711E-81
  -2.680 -0.3399E-81 -0.8779E-81
  -2.660 -0.3393E-81 -0.8847E-81
  -2.640 -0.3387E-81 -0.8914E-81
  -2.620 -0.3381E-81 -0.8982E-81
  -2.600 -0.3376E-81 -0.9050E-81
  -2.580 -0.3370E-81 -0.9117E-81
  -2.560 -0.3364E-81 -0.9184E-81
  -2.540 -0.3358E-81 -0.9251E-81
  -2.520 -0.3352E-81 -0.9318E-81
  -2.500 -0.3347E-81 -0.9385E-81
  -2.480 -0.3341E-81 -0.9452E-81
  -2.460 -0.3335E-81 -0.9519E-81
  -2.440 -0.3329E-81 -0.9585E-81
  -2.420 -0.3323E-81 -0.9652E-81
  -2.400 -0.3318E-81 -0.9718E-81
  -2.380 -0.3312E-81 -0.9785E-81
  -2.360 -0.3306E-81 -0.9851E-81
  -2.340 -0.3300E-81 -0.9917E-81
  -2.320 -0.3295E-81 -0.9983E-81
  -2.300 -0.3289E-81 -0.1005E-80
  -2.280 -0.3283E-81 -0.1011E-80
  -2.260 -0.3278E-81 -0.1018E-80
  -2.240 -0.3272E-81 -0.1025E-80
  -2.220 -0.3266E-81 -0.1031E-80
  -2.200 -0.3260E-81 -0.1038E-80
  -2.180 -0.3255E-81 -0.1044E-80
  -2.160 -0.3249E-81 -0.1051E-80
  -2.140 -0.3243E-81 -0.1057E-80
  -2.120 -0.3238E-81 -0.1064E-80
  -2.100 -0.3232E-81 -0.1070E-80
  -2.080 -0.3226E-81 -0.1076E-80
  -2.060 -0.3221E-81 -0.1083E-80
  -2.040 -0.3215E-81 -0.1089E-80
  -2.020 -0.3210E-81 -0.1096E-80
  -2.000 -0.3204E-81 -0.1102E-80
  -1.980 -0.3198E-81 -0.1109E-80
  -1.960 -0.3193E-81 -0.1115E-80
  -1.940 -0.3187E-81 -0.1121E-80
  -1.920 -0.3181E-81 -0.1128E-80
  -1.900 -0.3176E-81 -0.1134E-80
  -1.880 -0.3170E-81 -0.1140E-80
  -1.860 -0.3165E-81 -0.1147E-80
  -1.840 -0.3159E-81 -0.1153E-80
  -1.820 -0.3153E-81 -0.1159E-80
  -1.800 -0.3148E-81 -0.1166E-80
  -1.780 -0.3142E-81 -0.1172E-80
  -1.760 -0.3137E-81 -0.1178E-80
  -1.740 -0.3131E-81 -0.1184E-80
  -1.720 -0.3126E-81 -0.1191E-80
  -1.700 -0.3120E-81 -0.1197E-80
  -1.680 -0.3115E-81 -0.1203E-80
  -1.660 -0.3109E-81 -0.1209E-80
  -1.640 -0.3104E-81 -0.1216E-80
  -1.620 -0.3098E-81 -0.1222E-80
  -1.600 -0.3093E-81 -0.1228E-80
  -1.580 -0.3087E-81 -0.1234E-80
  -1.560 -0.3082E-81 -0.1240E-80
  -1.540 -0.3076E-81 -0.1246E-80
  -1.520 -0.3071E-81 -0.1253E-80
  -1.500 -0.3065E-81 -0.1259E-80
  -1.480 -0.3060E-81 -0.1265E-80
  -1.460 -0.3054E-81 -0.1271E-80
  -1.440 -0.3049E-81 -0.1277E-80
  -1.420 -0.3043E-81 -0.1283E-80
  -1.400 -0.3038E-81 -0.1289E-80
  -1.380 -0.3032E-81 -0.1295E-80
  -1.360 -0.3027E-81 -0.1301E-80
  -1.340 -0.3021E-81 -0.1307E-80
  -1.320 -0.3016E-81 -0.1313E-80
  -1.300 -0.3011E-81 -0.1319E-80
  -1.280 -0.3005E-81 -0.1325E-80
  -1.260 -0.3000E-81 -0.1331E-80
  -1.240 -0.2994E-81 -0.1337E-80
  -1.220 -0.2989E-81 -0.1343E-80
  -1.200 -0.2984E-81 -0.1349E-80
  -1.180 -0.2978E-81 -0.1355E-80
  -1.160 -0.2973E-81 -0.1361E-80
  -1.140 -0.2968E-81 -0.1367E-80
  -1.120 -0.2962E-81 -0.1373E-80
  -1.100 -0.2957E-81 -0.1379E-80
  -1.080 -0.2951E-81 -0.1385E-80
  -1.060 -0.2946E-81 -0.1391E-80
  -1.040 -0.2941E-81 -0.1397E-80
  -1.020 -0.2935E-81 -0.1403E-80
  -1.000 -0.2930E-81 -0.1408E-80
  -0.980 -0.2925E-81 -0.1414E-80
  -0.960 -0.2919E-81 -0.1420E-80
  -0.940 -0.2914E-81 -0.1426E-80
  -0.920 -0.2909E-81 -0.1432E-80
  -0.900 -0.2904E-81 -0.1438E-80
  -0.880 -0.2898E-81 -0.1443E-80
  -0.860 -0.2893E-81 -0.1449E-80
  -0.840 -0.2888E-81 -0.1455E-80
  -0.820 -0.2882E-81 -0.1461E-80
  -0.800 -0.2877E-81 -0.1466E-80
  -0.780 -0.2872E-81 -0.1472E-80
  -0.760 -0.2867E-81 -0.1478E-80
  -0.740 -0.2861E-81 -0.1484E-80
  -0.720 -0.2856E-81 -0.1489E-80
  -0.700 -0.2851E-81 -0.1495E-80
  -0.680 -0.2846E-81 -0.1501E-80
  -0.660 -0.2841E-81 -0.1506E-80
  -0.640 -0.2835E-81 -0.1512E-80
  -0.620 -0.2830E-81 -0.1518E-80
  -0.600 -0.2825E-81 -0.1523E-80
  -0.580 -0.2820E-81 -0.1529E-80
  -0.560 -0.2815E-81 -0.1535E-80
  -0.540 -0.2809E-81 -0.1540E-80
  -0.520 -0.2804E-81 -0.1546E-80
  -0.500 -0.2799E-81 -0.1552E-80
  -0.480 -0.2794E-81 -0.1557E-80
  -0.460 -0.2789E-81 -0.1563E-80
  -0.440 -0.2784E-81 -0.1568E-80
  -0.420 -0.2778E-81 -0.1574E-80
  -0.400 -0.2773E-81 -0.1579E-80
  -0.380 -0.2768E-81 -0.1585E-80
  -0.360 -0.2763E-81 -0.1590E-80
  -0.340 -0.2758E-81 -0.1596E-80
  -0.320 -0.2753E-81 -0.1601E-80
  -0.300 -0.2748E-81 -0.1607E-80
  -0.280 -0.2743E-81 -0.1612E-80
  -0.260 -0.2738E-81 -0.1618E-80
  -0.240 -0.2732E-81 -0.1623E-80
  -0.220 -0.2727E-81 -0.1629E-80
  -0.200 -0.2722E-81 -0.1634E-80
  -0.180 -0.2717E-81 -0.1640E-80
  -0.160 -0.2712E-81 -0.1645E-80
  -0.140 -0.2707E-81 -0.1651E-80
  -0.120 -0.2702E-81 -0.1656E-80
  -0.100 -0.2697E-81 -0.1661E-80
  -0.080 -0.2692E-81 -0.1667E-80
  -0.060 -0.2687E-81 -0.1672E-80
  -0.040 -0.2682E-81 -0.1677E-80
  -0.020 -0.2677E-81 -0.1683E-80
   0.000 -0.2672E-81 -0.1688E-80
   0.020 -0.2667E-81 -0.1693E-80
   0.040 -0.2662E-81 -0.1699E-80
   0.060 -0.2657E-81 -0.1704E-80
   0.080 -0.2652E-81 -0.1709E-80
   0.100 -0.2647E-81 -0.1715E-80
   0.120 -0.2642E-81 -0.1720E-80
   0.140 -0.2637E-81 -0.1725E-80
   0.160 -0.2632E-81 -0.1731E-80
   0.180 -0.2627E-81 -0.1736E-80
   0.200 -0.2622E-81 -0.1741E-80
   0.220 -0.2617E-81 -0.1746E-80
   0.240 -0.2612E-81 -0.1751E-80
   0.260 -0.2607E-81 -0.1757E-80
   0.280 -0.2602E-81 -0.1762E-80
   0.300 -0.2597E-81 -0.1767E-80
   0.320 -0.2592E-81 -0.1772E-80
   0.340 -0.2588E-81 -0.1777E-80
   0.360 -0.2583E-81 -0.1783E-80
   0.380 -0.2578E-81 -0.1788E-80
   0.400 -0.2573E-81 -0.1793E-80
   0.420 -0.2568E-81 -0.1798E-80
   0.440 -0.2563E-81 -0.1803E-80
   0.460 -0.2558E-81 -0.1808E-80
   0.480 -0.2553E-81 -0.1813E-80
   0.500 -0.2549E-81 -0.1819E-80
   0.520 -0.2544E-81 -0.1824E-80
   0.540 -0.2539E-81 -0.1829E-80
   0.560 -0.2534E-81 -0.1834E-80
   0.580 -0.2529E-81 -0.1839E-80
   0.600 -0.2524E-81 -0.1844E-80
   0.620 -0.2520E-81 -0.1849E-80
   0.640 -0.2515E-81 -0.1854E-80
   0.660 -0.2510E-81 -0.1859E-80
   0.680 -0.2505E-81 -0.1864E-80
   0.700 -0.2500E-81 -0.1869E-80
   0.720 -0.2496E-81 -0.1874E-80
   0.740 -0.2491E-81 -0.1879E-80
   0.760 -0.2486E-81 -0.1884E-80
   0.780 -0.2481E-81 -0.1889E-80
   0.800 -0.2476E-81 -0.1894E-80
   0.820 -0.2472E-81 -0.1899E-80
   0.840 -0.2467E-81 -0.1904E-80
   0.860 -0.2462E-81 -0.1909E-80
   0.880 -0.2457E-81 -0.1914E-80
   0.900 -0.2453E-81 -0.1918E-80
   0.920 -0.2448E-81 -0.1923E-80
   0.940 -0.2443E-81 -0.1928E-80
   0.960 -0.2439E-81 -0.1933E-80
   0.980 -0.2434E-81 -0.1938E-80
   1.000 -0.2429E-81 -0.1943E-80
   1.020 -0.2424E-81 -0.1948E-80
   1.040 -0.2420E-81 -0.1953E-80
   1.060 -0.2415E-81 -0.1957E-80
   1.080 -0.2410E-81 -0.1962E-80
   1.100 -0.2406E-81 -0.1967E-80
   1.120 -0.2401E-81 -0.1972E-80
   1.140 -0.2396E-81 -0.1977E-80
   1.160 -0.2392E-81 -0.1981E-80
   1.180 -0.2387E-81 -0.1986E-80
   1.200 -0.2382E-81 -0.1991E-80
   1.220 -0.2378E-81 -0.1996E-80
   1.240 -0.2373E-81 -0.2000E-80
   1.260 -0.2369E-81 -0.2005E-80
   1.280 -0.2364E-81 -0.2010E-80
   1.300 -0.2359E-81 -0.2015E-80
   1.320 -0.2355E-81 -0.2019E-80
   1.340 -0.2350E-81 -0.2024E-80
   1.360 -0.2346E-81 -0.2029E-80
   1.380 -0.2341E-81 -0.2033E-80
   1.400 -0.2337E-81 -0.2038E-80
   1.420 -0.2339E-81 -0.2043E-80
   1.440 -0.2381E-81 -0.2047E-80
   1.460 -0.2721E-81 -0.2053E-80
   1.480 -0.5248E-81 -0.2063E-80
   1.500 -0.2361E-80 -0.2111E-80
   1.520 -0.1554E-79 -0.2421E-80
   1.540 -0.1091E-78 -0.4604E-80
   1.560 -0.7663E-78 -0.1993E-79
   1.580 -0.5332E-77 -0.1266E-78
   1.600 -0.3671E-76 -0.8607E-78
   1.620 -0.2500E-75 -0.5860E-77
   1.640 -0.1684E-74 -0.3954E-76
   1.660 -0.1122E-73 -0.2640E-75
   1.680 -0.7400E-73 -0.1744E-74
   1.700 -0.4826E-72 -0.1140E-73
   1.720 -0.3114E-71 -0.7367E-73
   1.740 -0.1987E-70 -0.4711E-72
   1.760 -0.1255E-69 -0.2980E-71
   1.780 -0.7836E-69 -0.1865E-70
   1.800 -0.4841E-68 -0.1155E-69
   1.820 -0.2959E-67 -0.7072E-69
   1.840 -0.1789E-66 -0.4285E-68
   1.860 -0.1070E-65 -0.2568E-67
   1.880 -0.6330E-65 -0.1523E-66
   1.900 -0.3705E-64 -0.8933E-66
   1.920 -0.2145E-63 -0.5183E-65
   1.940 -0.1229E-62 -0.2975E-64
   1.960 -0.6961E-62 -0.1690E-63
   1.980 -0.3902E-61 -0.9493E-63
   2.000 -0.2163E-60 -0.5276E-62
   2.020 -0.1187E-59 -0.2901E-61
   2.040 -0.6438E-59 -0.1578E-60
   2.060 -0.3456E-58 -0.8489E-60
   2.080 -0.1835E-57 -0.4519E-59
   2.100 -0.9638E-57 -0.2380E-58
   2.120 -0.5008E-56 -0.1240E-57
   2.140 -0.2574E-55 -0.6388E-57
   2.160 -0.1309E-54 -0.3257E-56
   2.180 -0.6585E-54 -0.1643E-55
   2.200 -0.3277E-53 -0.8197E-55
   2.220 -0.1613E-52 -0.4046E-54
   2.240 -0.7857E-52 -0.1976E-53
   2.260 -0.3785E-51 -0.9546E-53
   2.280 -0.1804E-50 -0.4562E-52
   2.300 -0.8505E-50 -0.2157E-51
   2.320 -0.3967E-49 -0.1009E-50
   2.340 -0.1830E-48 -0.4669E-50
   2.360 -0.8354E-48 -0.2138E-49
   2.380 -0.3772E-47 -0.9682E-49
   2.400 -0.1685E-46 -0.4338E-48
   2.420 -0.7445E-46 -0.1923E-47
   2.440 -0.3255E-45 -0.8432E-47
   2.460 -0.1408E-44 -0.3658E-46
   2.480 -0.6021E-44 -0.1570E-45
   2.500 -0.2548E-43 -0.6667E-45
   2.520 -0.1067E-42 -0.2801E-44
   2.540 -0.4419E-42 -0.1164E-43
   2.560 -0.1811E-41 -0.4785E-43
   2.580 -0.7340E-41 -0.1947E-42
   2.600 -0.2943E-40 -0.7833E-42
   2.620 -0.1168E-39 -0.3119E-41
   2.640 -0.4582E-39 -0.1228E-40
   2.660 -0.1779E-38 -0.4787E-40
   2.680 -0.6833E-38 -0.1845E-39
   2.700 -0.2596E-37 -0.7038E-39
   2.720 -0.9760E-37 -0.2656E-38
   2.740 -0.3629E-36 -0.9914E-38
   2.760 -0.1335E-35 -0.3662E-37
   2.780 -0.4859E-35 -0.1338E-36
   2.800 -0.1749E-34 -0.4837E-36
   2.820 -0.6231E-34 -0.1730E-35
   2.840 -0.2196E-33 -0.6122E-35
   2.860 -0.7654E-33 -0.2143E-34
   2.880 -0.2640E-32 -0.7423E-34
   2.900 -0.9006E-32 -0.2543E-33
   2.920 -0.3040E-31 -0.8623E-33
   2.940 -0.1015E-30 -0.2892E-32
   2.960 -0.3353E-30 -0.9598E-32
   2.980 -0.1096E-29 -0.3151E-31
   3.000 -0.3543E-29 -0.1024E-30
   3.020 -0.1133E-28 -0.3290E-30
   3.040 -0.3585E-28 -0.1046E-29
   3.060 -0.1122E-27 -0.3291E-29
   3.080 -0.3476E-27 -0.1024E-28
   3.100 -0.1065E-26 -0.3154E-28
   3.120 -0.3228E-26 -0.9609E-28
   3.140 -0.9678E-26 -0.2896E-27
   3.160 -0.2871E-25 -0.8638E-27
   3.180 -0.8425E-25 -0.2549E-26
   3.200 -0.2446E-24 -0.7441E-26
   3.220 -0.7025E-24 -0.2149E-25
   3.240 -0.1996E-23 -0.6142E-25
   3.260 -0.5612E-23 -0.1737E-24
   3.280 -0.1561E-22 -0.4858E-24
   3.300 -0.4294E-22 -0.1344E-23
   3.320 -0.1169E-21 -0.3682E-23
   3.340 -0.3147E-21 -0.9975E-23
   3.360 -0.8382E-21 -0.2674E-22
   3.380 -0.2209E-20 -0.7091E-22
   3.400 -0.5758E-20 -0.1861E-21
   3.420 -0.1485E-19 -0.4831E-21
   3.440 -0.3789E-19 -0.1241E-20
   3.460 -0.9564E-19 -0.3154E-20
   3.480 -0.2388E-18 -0.7930E-20
   3.500 -0.5899E-18 -0.1973E-19
   3.520 -0.1442E-17 -0.4856E-19
   3.540 -0.3485E-17 -0.1183E-18
   3.560 -0.8334E-17 -0.2849E-18
   3.580 -0.1972E-16 -0.6793E-18
   3.600 -0.4615E-16 -0.1602E-17
   3.620 -0.1068E-15 -0.3739E-17
   3.640 -0.2447E-15 -0.8633E-17
   3.660 -0.5544E-15 -0.1972E-16
   3.680 -0.1243E-14 -0.4457E-16
   3.700 -0.2755E-14 -0.9967E-16
   3.720 -0.6042E-14 -0.2205E-15
   3.740 -0.1311E-13 -0.4826E-15
   3.760 -0.2813E-13 -0.1045E-14
   3.780 -0.5972E-13 -0.2240E-14
   3.800 -0.1254E-12 -0.4748E-14
   3.820 -0.2605E-12 -0.9958E-14
   3.840 -0.5352E-12 -0.2066E-13
   3.860 -0.1088E-11 -0.4242E-13
   3.880 -0.2187E-11 -0.8616E-13
   3.900 -0.4349E-11 -0.1731E-12
   3.920 -0.8555E-11 -0.3442E-12
   3.940 -0.1664E-10 -0.6771E-12
   3.960 -0.3203E-10 -0.1318E-11
   3.980 -0.6097E-10 -0.2537E-11
   4.000 -0.1148E-09 -0.4833E-11
   4.020 -0.2137E-09 -0.9108E-11
   4.040 -0.3937E-09 -0.1698E-10
   4.060 -0.7171E-09 -0.3132E-10
   4.080 -0.1292E-08 -0.5716E-10
   4.100 -0.2302E-08 -0.1032E-09
   4.120 -0.4056E-08 -0.1843E-09
   4.140 -0.7069E-08 -0.3257E-09
   4.160 -0.1218E-07 -0.5694E-09
   4.180 -0.2077E-07 -0.9847E-09
   4.200 -0.3501E-07 -0.1685E-08
   4.220 -0.5835E-07 -0.2852E-08
   4.240 -0.9619E-07 -0.4776E-08
   4.260 -0.1568E-06 -0.7911E-08
   4.280 -0.2527E-06 -0.1297E-07
   4.300 -0.4027E-06 -0.2102E-07
   4.320 -0.6346E-06 -0.3371E-07
   4.340 -0.9888E-06 -0.5349E-07
   4.360 -0.1523E-05 -0.8395E-07
   4.380 -0.2320E-05 -0.1303E-06
   4.400 -0.3493E-05 -0.2002E-06
   4.420 -0.5198E-05 -0.3042E-06
   4.440 -0.7648E-05 -0.4571E-06
   4.460 -0.1112E-04 -0.6795E-06
   4.480 -0.1598E-04 -0.9992E-06
   4.500 -0.2270E-04 -0.1453E-05
   4.520 -0.3187E-04 -0.2091E-05
   4.540 -0.4420E-04 -0.2975E-05
   4.560 -0.6056E-04 -0.4186E-05
   4.580 -0.8197E-04 -0.5825E-05
   4.600 -0.1096E-03 -0.8017E-05
   4.620 -0.1447E-03 -0.1091E-04
   4.640 -0.1885E-03 -0.1468E-04
   4.660 -0.2425E-03 -0.1953E-04
   4.680 -0.3078E-03 -0.2569E-04
   4.700 -0.3853E-03 -0.3339E-04
   4.720 -0.4755E-03 -0.4290E-04
   4.740 -0.5783E-03 -0.5447E-04
   4.760 -0.6925E-03 -0.6832E-04
   4.780 -0.8157E-03 -0.8463E-04
   4.800 -0.9443E-03 -0.1035E-03
   4.820 -0.1073E-02 -0.1250E-03
   4.840 -0.1193E-02 -0.1488E-03
   4.860 -0.1296E-02 -0.1747E-03
   4.880 -0.1369E-02 -0.2021E-03
   4.900 -0.1398E-02 -0.2301E-03
   4.920 -0.1367E-02 -0.2574E-03
   4.940 -0.1256E-02 -0.2825E-03
   4.960 -0.1048E-02 -0.3035E-03
   4.980 -0.7209E-03 -0.3179E-03
   5.000 -0.2549E-03 -0.3230E-03
   5.020  0.3694E-03 -0.3156E-03
   5.040  0.1170E-02 -0.2922E-03
   5.060  0.2161E-02 -0.2490E-03
   5.080  0.3354E-02 -0.1819E-03
   5.100  0.4756E-02 -0.8683E-04
   5.120  0.6369E-02  0.4054E-04
   5.140  0.8190E-02  0.2043E-03
   5.160  0.1021E-01  0.4085E-03
   5.180  0.1242E-01  0.6568E-03
   5.200  0.1479E-01  0.9526E-03
   5.220  0.1731E-01  0.1299E-02
   5.240  0.1995E-01  0.1698E-02
   5.260  0.2268E-01  0.2151E-02
   5.280  0.2548E-01  0.2661E-02
   5.300  0.2831E-01  0.3227E-02
   5.320  0.3116E-01  0.3850E-02
   5.340  0.3398E-01  0.4530E-02
   5.360  0.3677E-01  0.5265E-02
   5.380  0.3950E-01  0.6056E-02
   5.400  0.4217E-01  0.6899E-02
   5.420  0.4474E-01  0.7794E-02
   5.440  0.4724E-01  0.8738E-02
   5.460  0.4964E-01  0.9731E-02
   5.480  0.5195E-01  0.1077E-01
   5.500  0.5417E-01  0.1185E-01
   5.520  0.5633E-01  0.1298E-01
   5.540  0.5841E-01  0.1415E-01
   5.560  0.6043E-01  0.1536E-01
   5.580  0.6241E-01  0.1661E-01
   5.600  0.6435E-01  0.1789E-01
   5.620  0.6625E-01  0.1922E-01
   5.640  0.6813E-01  0.2058E-01
   5.660  0.6998E-01  0.2198E-01
   5.680  0.7182E-01  0.2342E-01
   5.700  0.7363E-01  0.2489E-01
   5.720  0.7543E-01  0.2640E-01
   5.740  0.7720E-01  0.2794E-01
   5.760  0.7895E-01  0.2952E-01
   5.780  0.8069E-01  0.3113E-01
   5.800  0.8242E-01  0.3278E-01
   5.820  0.8413E-01  0.3446E-01
   5.840  0.8584E-01  0.3618E-01
   5.860  0.8755E-01  0.3793E-01
   5.880  0.8927E-01  0.3972E-01
   5.900  0.9097E-01  0.4154E-01
   5.920  0.9266E-01  0.4339E-01
   5.940  0.9431E-01  0.4528E-01
   5.960  0.9590E-01  0.4719E-01
   5.980  0.9738E-01  0.4914E-01
   6.000  0.9872E-01  0.5112E-01
   6.020  0.9986E-01  0.5311E-01
   6.040  0.1007E+00  0.5513E-01
   6.060  0.1013E+00  0.5716E-01
   6.080  0.1016E+00  0.5919E-01
   6.100  0.1014E+00  0.6122E-01
   6.120  0.1009E+00  0.6323E-01
   6.140  0.9997E-01  0.6523E-01
   6.160  0.9870E-01  0.6721E-01
   6.180  0.9714E-01  0.6915E-01
   6.200  0.9542E-01  0.7106E-01
   6.220  0.9368E-01  0.7293E-01
   6.240  0.9216E-01  0.7477E-01
   6.260  0.9112E-01  0.7660E-01
   6.280  0.9090E-01  0.7842E-01
   6.300  0.9190E-01  0.8025E-01
   6.320  0.9460E-01  0.8214E-01
   6.340  0.9953E-01  0.8414E-01
   6.360  0.1073E+00  0.8628E-01
   6.380  0.1185E+00  0.8865E-01
   6.400  0.1339E+00  0.9133E-01
   6.420  0.1542E+00  0.9442E-01
   6.440  0.1800E+00  0.9802E-01
   6.460  0.2120E+00  0.1023E+00
   6.480  0.2508E+00  0.1073E+00
   6.500  0.2968E+00  0.1132E+00
   6.520  0.3505E+00  0.1202E+00
   6.540  0.4119E+00  0.1285E+00
   6.560  0.4813E+00  0.1381E+00
   6.580  0.5584E+00  0.1493E+00
   6.600  0.6431E+00  0.1621E+00
   6.620  0.7349E+00  0.1768E+00
   6.640  0.8332E+00  0.1935E+00
   6.660  0.9375E+00  0.2122E+00
   6.680  0.1047E+01  0.2332E+00
   6.700  0.1161E+01  0.2564E+00
   6.720  0.1279E+01  0.2820E+00
   6.740  0.1400E+01  0.3100E+00
   6.760  0.1524E+01  0.3405E+00
   6.780  0.1649E+01  0.3734E+00
   6.800  0.1776E+01  0.4090E+00
   6.820  0.1903E+01  0.4470E+00
   6.840  0.2030E+01  0.4876E+00
   6.860  0.2157E+01  0.5308E+00
   6.880  0.2282E+01  0.5764E+00
   6.900  0.2405E+01  0.6245E+00
   6.920  0.2525E+01  0.6750E+00
   6.940  0.2641E+01  0.7278E+00
   6.960  0.2751E+01  0.7828E+00
   6.980  0.2855E+01  0.8399E+00
   7.000  0.2950E+01  0.8989E+00
   7.020  0.3037E+01  0.9597E+00
   7.040  0.3113E+01  0.1022E+01
   7.060  0.3177E+01  0.1085E+01
   7.080  0.3229E+01  0.1150E+01
   7.100  0.3267E+01  0.1215E+01
   7.120  0.3291E+01  0.1281E+01
   7.140  0.3301E+01  0.1347E+01
   7.160  0.3298E+01  0.1413E+01
   7.180  0.3281E+01  0.1479E+01
   7.200  0.3251E+01  0.1544E+01
   7.220  0.3210E+01  0.1608E+01
   7.240  0.3158E+01  0.1671E+01
   7.260  0.3098E+01  0.1733E+01
   7.280  0.3031E+01  0.1794E+01
   7.300  0.2958E+01  0.1853E+01
   7.320  0.2881E+01  0.1911E+01
   7.340  0.2802E+01  0.1967E+01
   7.360  0.2722E+01  0.2021E+01
   7.380  0.2644E+01  0.2074E+01
   7.400  0.2568E+01  0.2125E+01
   7.420  0.2496E+01  0.2175E+01
   7.440  0.2429E+01  0.2224E+01
   7.460  0.2368E+01  0.2271E+01
   7.480  0.2314E+01  0.2317E+01
   7.500  0.2268E+01  0.2363E+01
   7.520  0.2230E+01  0.2407E+01
   7.540  0.2201E+01  0.2451E+01
   7.560  0.2180E+01  0.2495E+01
   7.580  0.2167E+01  0.2538E+01
   7.600  0.2163E+01  0.2582E+01
   7.620  0.2166E+01  0.2625E+01
   7.640  0.2176E+01  0.2668E+01
   7.660  0.2191E+01  0.2712E+01
   7.680  0.2212E+01  0.2756E+01
   7.700  0.2236E+01  0.2801E+01
   7.720  0.2263E+01  0.2846E+01
   7.740  0.2292E+01  0.2892E+01
   7.760  0.2321E+01  0.2939E+01
   7.780  0.2349E+01  0.2986E+01
   7.800  0.2376E+01  0.3033E+01
   7.820  0.2401E+01  0.3081E+01
   7.840  0.2423E+01  0.3130E+01
   7.860  0.2441E+01  0.3179E+01
   7.880  0.2456E+01  0.3228E+01
   7.900  0.2468E+01  0.3277E+01
   7.920  0.2478E+01  0.3327E+01
   7.940  0.2484E+01  0.3376E+01
   7.960  0.2490E+01  0.3426E+01
   7.980  0.2494E+01  0.3476E+01
   8.000  0.2499E+01  0.3526E+01
   8.020  0.2506E+01  0.3576E+01
   8.040  0.2516E+01  0.3626E+01
   8.060  0.2530E+01  0.3677E+01
   8.080  0.2550E+01  0.3728E+01
   8.100  0.2577E+01  0.3779E+01
   8.120  0.2612E+01  0.3832E+01
   8.140  0.2655E+01  0.3885E+01
   8.160  0.2708E+01  0.3939E+01
   8.180  0.2770E+01  0.3994E+01
   8.200  0.2841E+01  0.4051E+01
   8.220  0.2922E+01  0.4110E+01
   8.240  0.3010E+01  0.4170E+01
   8.260  0.3105E+01  0.4232E+01
   8.280  0.3204E+01  0.4296E+01
   8.300  0.3306E+01  0.4362E+01
   8.320  0.3407E+01  0.4430E+01
   8.340  0.3504E+01  0.4500E+01
   8.360  0.3596E+01  0.4572E+01
   8.380  0.3678E+01  0.4646E+01
   8.400  0.3748E+01  0.4721E+01
   8.420  0.3803E+01  0.4797E+01
   8.440  0.3841E+01  0.4874E+01
   8.460  0.3861E+01  0.4951E+01
   8.480  0.3861E+01  0.5028E+01
   8.500  0.3842E+01  0.5105E+01
   8.520  0.3804E+01  0.5181E+01
   8.540  0.3747E+01  0.5256E+01
   8.560  0.3674E+01  0.5329E+01
   8.580  0.3587E+01  0.5401E+01
   8.600  0.3489E+01  0.5471E+01
   8.620  0.3384E+01  0.5539E+01
   8.640  0.3274E+01  0.5604E+01
   8.660  0.3163E+01  0.5667E+01
   8.680  0.3054E+01  0.5728E+01
   8.700  0.2950E+01  0.5787E+01
   8.720  0.2853E+01  0.5844E+01
   8.740  0.2767E+01  0.5900E+01
   8.760  0.2692E+01  0.5954E+01
   8.780  0.2629E+01  0.6006E+01
   8.800  0.2579E+01  0.6058E+01
   8.820  0.2543E+01  0.6109E+01
   8.840  0.2519E+01  0.6159E+01
   8.860  0.2508E+01  0.6209E+01
   8.880  0.2508E+01  0.6259E+01
   8.900  0.2518E+01  0.6310E+01
   8.920  0.2537E+01  0.6361E+01
   8.940  0.2564E+01  0.6412E+01
   8.960  0.2597E+01  0.6464E+01
   8.980  0.2635E+01  0.6516E+01
   9.000  0.2676E+01  0.6570E+01
   9.020  0.2719E+01  0.6624E+01
   9.040  0.2763E+01  0.6680E+01
   9.060  0.2807E+01  0.6736E+01
   9.080  0.2850E+01  0.6793E+01
   9.100  0.2890E+01  0.6851E+01
   9.120  0.2927E+01  0.6909E+01
   9.140  0.2960E+01  0.6968E+01
   9.160  0.2989E+01  0.7028E+01
   9.180  0.3012E+01  0.7088E+01
   9.200  0.3029E+01  0.7149E+01
   9.220  0.3040E+01  0.7210E+01
   9.240  0.3044E+01  0.7271E+01
   9.260  0.3043E+01  0.7331E+01
   9.280  0.3034E+01  0.7392E+01
   9.300  0.3019E+01  0.7452E+01
   9.320  0.2999E+01  0.7512E+01
   9.340  0.2973E+01  0.7572E+01
   9.360  0.2942E+01  0.7631E+01
   9.380  0.2907E+01  0.7689E+01
   9.400  0.2869E+01  0.7746E+01
   9.420  0.2829E+01  0.7803E+01
   9.440  0.2788E+01  0.7859E+01
   9.460  0.2747E+01  0.7914E+01
   9.480  0.2706E+01  0.7968E+01
   9.500  0.2668E+01  0.8021E+01
   9.520  0.2632E+01  0.8074E+01
   9.540  0.2600E+01  0.8126E+01
   9.560  0.2573E+01  0.8177E+01
   9.580  0.2552E+01  0.8228E+01
   9.600  0.2536E+01  0.8279E+01
   9.620  0.2527E+01  0.8329E+01
   9.640  0.2525E+01  0.8380E+01
   9.660  0.2531E+01  0.8431E+01
   9.680  0.2545E+01  0.8481E+01
   9.700  0.2569E+01  0.8533E+01
   9.720  0.2601E+01  0.8585E+01
   9.740  0.2643E+01  0.8638E+01
   9.760  0.2694E+01  0.8692E+01
   9.780  0.2754E+01  0.8747E+01
   9.800  0.2823E+01  0.8803E+01
   9.820  0.2900E+01  0.8861E+01
   9.840  0.2983E+01  0.8921E+01
   9.860  0.3071E+01  0.8982E+01
   9.880  0.3161E+01  0.9045E+01
   9.900  0.3251E+01  0.9110E+01
   9.920  0.3337E+01  0.9177E+01
   9.940  0.3416E+01  0.9246E+01
   9.960  0.3483E+01  0.9315E+01
   9.980  0.3536E+01  0.9386E+01
  10.000  0.3570E+01  0.9457E+01
  10.020  0.3582E+01  0.9529E+01
  10.040  0.3570E+01  0.9600E+01
  10.060  0.3531E+01  0.9671E+01
  10.080  0.3464E+01  0.9740E+01
  10.100  0.3370E+01  0.9808E+01
  10.120  0.3247E+01  0.9873E+01
  10.140  0.3100E+01  0.9935E+01
  10.160  0.2929E+01  0.9993E+01
  10.180  0.2739E+01  0.1005E+02
  10.200  0.2534E+01  0.1010E+02
  10.220  0.2318E+01  0.1015E+02
  10.240  0.2097E+01  0.1019E+02
  10.260  0.1874E+01  0.1022E+02
  10.280  0.1656E+01  0.1026E+02
  10.300  0.1445E+01  0.1029E+02
  10.320  0.1247E+01  0.1031E+02
  10.340  0.1063E+01  0.1033E+02
  10.360  0.8970E+00  0.1035E+02
  10.380  0.7495E+00  0.1037E+02
  10.400  0.6215E+00  0.1038E+02
  10.420  0.5129E+00  0.1039E+02
  10.440  0.4230E+00  0.1040E+02
  10.460  0.3506E+00  0.1040E+02
  10.480  0.2939E+00  0.1041E+02
  10.500  0.2510E+00  0.1041E+02
  10.520  0.2196E+00  0.1042E+02
  10.540  0.1977E+00  0.1042E+02
  10.560  0.1829E+00  0.1043E+02
  10.580  0.1735E+00  0.1043E+02
  10.600  0.1676E+00  0.1043E+02
  10.620  0.1638E+00  0.1044E+02
  10.640  0.1610E+00  0.1044E+02
  10.660  0.1584E+00  0.1044E+02
  10.680  0.1555E+00  0.1045E+02
  10.700  0.1521E+00  0.1045E+02
  10.720  0.1482E+00  0.1045E+02
  10.740  0.1440E+00  0.1046E+02
  10.760  0.1399E+00  0.1046E+02
  10.780  0.1363E+00  0.1046E+02
  10.800  0.1337E+00  0.1046E+02
  10.820  0.1325E+00  0.1047E+02
  10.840  0.1332E+00  0.1047E+02
  10.860  0.1359E+00  0.1047E+02
  10.880  0.1409E+00  0.1047E+02
  10.900  0.1482E+00  0.1048E+02
  10.920  0.1578E+00  0.1048E+02
  10.940  0.1694E+00  0.1048E+02
  10.960  0.1827E+00  0.1049E+02
  10.980  0.1972E+00  0.1049E+02
  11.000  0.2125E+00  0.1050E+02
  11.020  0.2278E+00  0.1050E+02
  11.040  0.2427E+00  0.1050E+02
  11.060  0.2565E+00  0.1051E+02
  11.080  0.2688E+00  0.1052E+02
  11.100  0.2790E+00  0.1052E+02
  11.120  0.2869E+00  0.1053E+02
  11.140  0.2921E+00  0.1053E+02
  11.160  0.2944E+00  0.1054E+02
  11.180  0.2940E+00  0.1054E+02
  11.200  0.2908E+00  0.1055E+02
  11.220  0.2851E+00  0.1056E+02
  11.240  0.2772E+00  0.1056E+02
  11.260  0.2673E+00  0.1057E+02
  11.280  0.2559E+00  0.1057E+02
  11.300  0.2435E+00  0.1058E+02
  11.320  0.2303E+00  0.1058E+02
  11.340  0.2170E+00  0.1059E+02
  11.360  0.2038E+00  0.1059E+02
  11.380  0.1912E+00  0.1059E+02
  11.400  0.1795E+00  0.1060E+02
  11.420  0.1690E+00  0.1060E+02
  11.440  0.1601E+00  0.1060E+02
  11.460  0.1530E+00  0.1061E+02
  11.480  0.1479E+00  0.1061E+02
  11.500  0.1449E+00  0.1061E+02
  11.520  0.1443E+00  0.1062E+02
  11.540  0.1460E+00  0.1062E+02
  11.560  0.1500E+00  0.1062E+02
  11.580  0.1564E+00  0.1062E+02
  11.600  0.1650E+00  0.1063E+02
  11.620  0.1756E+00  0.1063E+02
  11.640  0.1879E+00  0.1064E+02
  11.660  0.2016E+00  0.1064E+02
  11.680  0.2162E+00  0.1064E+02
  11.700  0.2312E+00  0.1065E+02
  11.720  0.2463E+00  0.1065E+02
  11.740  0.2608E+00  0.1066E+02
  11.760  0.2742E+00  0.1066E+02
  11.780  0.2862E+00  0.1067E+02
  11.800  0.2963E+00  0.1068E+02
  11.820  0.3042E+00  0.1068E+02
  11.840  0.3097E+00  0.1069E+02
  11.860  0.3126E+00  0.1069E+02
  11.880  0.3130E+00  0.1070E+02
  11.900  0.3108E+00  0.1071E+02
  11.920  0.3064E+00  0.1071E+02
  11.940  0.2998E+00  0.1072E+02
  11.960  0.2915E+00  0.1072E+02
  11.980  0.2818E+00  0.1073E+02
  12.000  0.2710E+00  0.1074E+02
  12.020  0.2594E+00  0.1074E+02
  12.040  0.2475E+00  0.1075E+02
  12.060  0.2355E+00  0.1075E+02
  12.080  0.2237E+00  0.1075E+02
  12.100  0.2123E+00  0.1076E+02
  12.120  0.2016E+00  0.1076E+02
  12.140  0.1916E+00  0.1077E+02
  12.160  0.1827E+00  0.1077E+02
  12.180  0.1749E+00  0.1077E+02
  12.200  0.1683E+00  0.1078E+02
  12.220  0.1632E+00  0.1078E+02
  12.240  0.1596E+00  0.1078E+02
  12.260  0.1578E+00  0.1079E+02
  12.280  0.1578E+00  0.1079E+02
  12.300  0.1599E+00  0.1079E+02
  12.320  0.1640E+00  0.1080E+02
  12.340  0.1702E+00  0.1080E+02
  12.360  0.1786E+00  0.1080E+02
  12.380  0.1890E+00  0.1081E+02
  12.400  0.2014E+00  0.1081E+02
  12.420  0.2154E+00  0.1082E+02
  12.440  0.2307E+00  0.1082E+02
  12.460  0.2469E+00  0.1083E+02
  12.480  0.2635E+00  0.1083E+02
  12.500  0.2801E+00  0.1084E+02
  12.520  0.2960E+00  0.1084E+02
  12.540  0.3108E+00  0.1085E+02
  12.560  0.3238E+00  0.1085E+02
  12.580  0.3348E+00  0.1086E+02
  12.600  0.3434E+00  0.1087E+02
  12.620  0.3492E+00  0.1088E+02
  12.640  0.3522E+00  0.1088E+02
  12.660  0.3523E+00  0.1089E+02
  12.680  0.3497E+00  0.1090E+02
  12.700  0.3445E+00  0.1090E+02
  12.720  0.3371E+00  0.1091E+02
  12.740  0.3278E+00  0.1092E+02
  12.760  0.3171E+00  0.1092E+02
  12.780  0.3053E+00  0.1093E+02
  12.800  0.2929E+00  0.1093E+02
  12.820  0.2802E+00  0.1094E+02
  12.840  0.2678E+00  0.1095E+02
  12.860  0.2557E+00  0.1095E+02
  12.880  0.2444E+00  0.1096E+02
  12.900  0.2339E+00  0.1096E+02
  12.920  0.2243E+00  0.1097E+02
  12.940  0.2158E+00  0.1097E+02
  12.960  0.2084E+00  0.1097E+02
  12.980  0.2021E+00  0.1098E+02
  13.000  0.1969E+00  0.1098E+02
  13.020  0.1928E+00  0.1099E+02
  13.040  0.1898E+00  0.1099E+02
  13.060  0.1881E+00  0.1099E+02
  13.080  0.1876E+00  0.1100E+02
  13.100  0.1885E+00  0.1100E+02
  13.120  0.1908E+00  0.1100E+02
  13.140  0.1946E+00  0.1101E+02
  13.160  0.1999E+00  0.1101E+02
  13.180  0.2068E+00  0.1102E+02
  13.200  0.2153E+00  0.1102E+02
  13.220  0.2251E+00  0.1103E+02
  13.240  0.2362E+00  0.1103E+02
  13.260  0.2483E+00  0.1103E+02
  13.280  0.2610E+00  0.1104E+02
  13.300  0.2741E+00  0.1105E+02
  13.320  0.2871E+00  0.1105E+02
  13.340  0.2997E+00  0.1106E+02
  13.360  0.3113E+00  0.1106E+02
  13.380  0.3216E+00  0.1107E+02
  13.400  0.3302E+00  0.1108E+02
  13.420  0.3370E+00  0.1108E+02
  13.440  0.3416E+00  0.1109E+02
  13.460  0.3440E+00  0.1110E+02
  13.480  0.3441E+00  0.1110E+02
  13.500  0.3421E+00  0.1111E+02
  13.520  0.3380E+00  0.1112E+02
  13.540  0.3322E+00  0.1112E+02
  13.560  0.3248E+00  0.1113E+02
  13.580  0.3163E+00  0.1114E+02
  13.600  0.3069E+00  0.1114E+02
  13.620  0.2969E+00  0.1115E+02
  13.640  0.2867E+00  0.1115E+02
  13.660  0.2766E+00  0.1116E+02
  13.680  0.2668E+00  0.1117E+02
  13.700  0.2575E+00  0.1117E+02
  13.720  0.2488E+00  0.1118E+02
  13.740  0.2408E+00  0.1118E+02
  13.760  0.2336E+00  0.1119E+02
  13.780  0.2271E+00  0.1119E+02
  13.800  0.2214E+00  0.1119E+02
  13.820  0.2165E+00  0.1120E+02
  13.840  0.2122E+00  0.1120E+02
  13.860  0.2086E+00  0.1121E+02
  13.880  0.2057E+00  0.1121E+02
  13.900  0.2033E+00  0.1122E+02
  13.920  0.2017E+00  0.1122E+02
  13.940  0.2007E+00  0.1122E+02
  13.960  0.2004E+00  0.1123E+02
  13.980  0.2009E+00  0.1123E+02
  14.000  0.2023E+00  0.1124E+02
  14.020  0.2047E+00  0.1124E+02
  14.040  0.2080E+00  0.1124E+02
  14.060  0.2124E+00  0.1125E+02
  14.080  0.2178E+00  0.1125E+02
  14.100  0.2243E+00  0.1126E+02
  14.120  0.2317E+00  0.1126E+02
  14.140  0.2399E+00  0.1127E+02
  14.160  0.2488E+00  0.1127E+02
  14.180  0.2582E+00  0.1128E+02
  14.200  0.2678E+00  0.1128E+02
  14.220  0.2774E+00  0.1129E+02
  14.240  0.2866E+00  0.1129E+02
  14.260  0.2953E+00  0.1130E+02
  14.280  0.3031E+00  0.1130E+02
  14.300  0.3098E+00  0.1131E+02
  14.320  0.3152E+00  0.1132E+02
  14.340  0.3191E+00  0.1132E+02
  14.360  0.3215E+00  0.1133E+02
  14.380  0.3223E+00  0.1134E+02
  14.400  0.3215E+00  0.1134E+02
  14.420  0.3192E+00  0.1135E+02
  14.440  0.3155E+00  0.1136E+02
  14.460  0.3106E+00  0.1136E+02
  14.480  0.3048E+00  0.1137E+02
  14.500  0.2981E+00  0.1137E+02
  14.520  0.2909E+00  0.1138E+02
  14.540  0.2834E+00  0.1139E+02
  14.560  0.2757E+00  0.1139E+02
  14.580  0.2682E+00  0.1140E+02
  14.600  0.2609E+00  0.1140E+02
  14.620  0.2541E+00  0.1141E+02
  14.640  0.2479E+00  0.1141E+02
  14.660  0.2423E+00  0.1142E+02
  14.680  0.2375E+00  0.1142E+02
  14.700  0.2334E+00  0.1143E+02
  14.720  0.2301E+00  0.1143E+02
  14.740  0.2275E+00  0.1143E+02
  14.760  0.2256E+00  0.1144E+02
  14.780  0.2243E+00  0.1144E+02
  14.800  0.2236E+00  0.1145E+02
  14.820  0.2232E+00  0.1145E+02
  14.840  0.2232E+00  0.1146E+02
  14.860  0.2233E+00  0.1146E+02
  14.880  0.2236E+00  0.1147E+02
  14.900  0.2238E+00  0.1147E+02
  14.920  0.2240E+00  0.1148E+02
  14.940  0.2240E+00  0.1148E+02
  14.960  0.2240E+00  0.1148E+02
  14.980  0.2238E+00  0.1149E+02
  15.000  0.2237E+00  0.1149E+02
  15.020  0.2236E+00  0.1150E+02
  15.040  0.2237E+00  0.1150E+02
  15.060  0.2241E+00  0.1151E+02
  15.080  0.2250E+00  0.1151E+02
  15.100  0.2264E+00  0.1152E+02
  15.120  0.2285E+00  0.1152E+02
  15.140  0.2314E+00  0.1152E+02
  15.160  0.2350E+00  0.1153E+02
  15.180  0.2393E+00  0.1153E+02
  15.200  0.2443E+00  0.1154E+02
  15.220  0.2497E+00  0.1154E+02
  15.240  0.2555E+00  0.1155E+02
  15.260  0.2615E+00  0.1155E+02
  15.280  0.2673E+00  0.1156E+02
  15.300  0.2728E+00  0.1157E+02
  15.320  0.2777E+00  0.1157E+02
  15.340  0.2819E+00  0.1158E+02
  15.360  0.2851E+00  0.1158E+02
  15.380  0.2873E+00  0.1159E+02
  15.400  0.2883E+00  0.1159E+02
  15.420  0.2880E+00  0.1160E+02
  15.440  0.2865E+00  0.1161E+02
  15.460  0.2838E+00  0.1161E+02
  15.480  0.2799E+00  0.1162E+02
  15.500  0.2749E+00  0.1162E+02
  15.520  0.2689E+00  0.1163E+02
  15.540  0.2620E+00  0.1163E+02
  15.560  0.2544E+00  0.1164E+02
  15.580  0.2462E+00  0.1164E+02
  15.600  0.2376E+00  0.1165E+02
  15.620  0.2287E+00  0.1165E+02
  15.640  0.2198E+00  0.1166E+02
  15.660  0.2109E+00  0.1166E+02
  15.680  0.2023E+00  0.1166E+02
  15.700  0.1942E+00  0.1167E+02
  15.720  0.1867E+00  0.1167E+02
  15.740  0.1799E+00  0.1168E+02
  15.760  0.1739E+00  0.1168E+02
  15.780  0.1690E+00  0.1168E+02
  15.800  0.1650E+00  0.1169E+02
  15.820  0.1621E+00  0.1169E+02
  15.840  0.1602E+00  0.1169E+02
  15.860  0.1593E+00  0.1170E+02
  15.880  0.1594E+00  0.1170E+02
  15.900  0.1602E+00  0.1170E+02
  15.920  0.1618E+00  0.1171E+02
  15.940  0.1639E+00  0.1171E+02
  15.960  0.1666E+00  0.1171E+02
  15.980  0.1696E+00  0.1172E+02
  16.000  0.1729E+00  0.1172E+02
  16.020  0.1764E+00  0.1172E+02
  16.040  0.1800E+00  0.1173E+02
  16.060  0.1835E+00  0.1173E+02
  16.080  0.1871E+00  0.1173E+02
  16.100  0.1905E+00  0.1174E+02
  16.120  0.1938E+00  0.1174E+02
  16.140  0.1968E+00  0.1174E+02
  16.160  0.1996E+00  0.1175E+02
  16.180  0.2021E+00  0.1175E+02
  16.200  0.2042E+00  0.1176E+02
  16.220  0.2060E+00  0.1176E+02
  16.240  0.2072E+00  0.1177E+02
  16.260  0.2081E+00  0.1177E+02
  16.280  0.2084E+00  0.1177E+02
  16.300  0.2083E+00  0.1178E+02
  16.320  0.2076E+00  0.1178E+02
  16.340  0.2066E+00  0.1179E+02
  16.360  0.2052E+00  0.1179E+02
  16.380  0.2035E+00  0.1179E+02
  16.400  0.2016E+00  0.1180E+02
  16.420  0.1996E+00  0.1180E+02
  16.440  0.1977E+00  0.1181E+02
  16.460  0.1960E+00  0.1181E+02
  16.480  0.1946E+00  0.1181E+02
  16.500  0.1936E+00  0.1182E+02
  16.520  0.1932E+00  0.1182E+02
  16.540  0.1935E+00  0.1183E+02
  16.560  0.1945E+00  0.1183E+02
  16.580  0.1964E+00  0.1183E+02
  16.600  0.1990E+00  0.1184E+02
  16.620  0.2023E+00  0.1184E+02
  16.640  0.2064E+00  0.1185E+02
  16.660  0.2110E+00  0.1185E+02
  16.680  0.2161E+00  0.1185E+02
  16.700  0.2215E+00  0.1186E+02
  16.720  0.2270E+00  0.1186E+02
  16.740  0.2325E+00  0.1187E+02
  16.760  0.2378E+00  0.1187E+02
  16.780  0.2429E+00  0.1188E+02
  16.800  0.2476E+00  0.1188E+02
  16.820  0.2518E+00  0.1189E+02
  16.840  0.2557E+00  0.1189E+02
  16.860  0.2593E+00  0.1190E+02
  16.880  0.2627E+00  0.1190E+02
  16.900  0.2659E+00  0.1191E+02
  16.920  0.2693E+00  0.1191E+02
  16.940  0.2729E+00  0.1192E+02
  16.960  0.2770E+00  0.1192E+02
  16.980  0.2817E+00  0.1193E+02
  17.000  0.2871E+00  0.1194E+02
  17.020  0.2932E+00  0.1194E+02
  17.040  0.3001E+00  0.1195E+02
  17.060  0.3077E+00  0.1195E+02
  17.080  0.3159E+00  0.1196E+02
  17.100  0.3244E+00  0.1197E+02
  17.120  0.3332E+00  0.1197E+02
  17.140  0.3418E+00  0.1198E+02
  17.160  0.3501E+00  0.1199E+02
  17.180  0.3577E+00  0.1199E+02
  17.200  0.3644E+00  0.1200E+02
  17.220  0.3700E+00  0.1201E+02
  17.240  0.3744E+00  0.1202E+02
  17.260  0.3775E+00  0.1202E+02
  17.280  0.3792E+00  0.1203E+02
  17.300  0.3796E+00  0.1204E+02
  17.320  0.3789E+00  0.1205E+02
  17.340  0.3771E+00  0.1205E+02
  17.360  0.3746E+00  0.1206E+02
  17.380  0.3715E+00  0.1207E+02
  17.400  0.3681E+00  0.1208E+02
  17.420  0.3645E+00  0.1208E+02
  17.440  0.3610E+00  0.1209E+02
  17.460  0.3576E+00  0.1210E+02
  17.480  0.3544E+00  0.1211E+02
  17.500  0.3515E+00  0.1211E+02
  17.520  0.3488E+00  0.1212E+02
  17.540  0.3462E+00  0.1213E+02
  17.560  0.3437E+00  0.1213E+02
  17.580  0.3411E+00  0.1214E+02
  17.600  0.3383E+00  0.1215E+02
  17.620  0.3351E+00  0.1215E+02
  17.640  0.3316E+00  0.1216E+02
  17.660  0.3276E+00  0.1217E+02
  17.680  0.3232E+00  0.1217E+02
  17.700  0.3183E+00  0.1218E+02
  17.720  0.3130E+00  0.1219E+02
  17.740  0.3075E+00  0.1219E+02
  17.760  0.3019E+00  0.1220E+02
  17.780  0.2964E+00  0.1220E+02
  17.800  0.2912E+00  0.1221E+02
  17.820  0.2864E+00  0.1222E+02
  17.840  0.2824E+00  0.1222E+02
  17.860  0.2792E+00  0.1223E+02
  17.880  0.2770E+00  0.1223E+02
  17.900  0.2760E+00  0.1224E+02
  17.920  0.2761E+00  0.1224E+02
  17.940  0.2774E+00  0.1225E+02
  17.960  0.2798E+00  0.1225E+02
  17.980  0.2833E+00  0.1226E+02
  18.000  0.2875E+00  0.1227E+02
  18.020  0.2923E+00  0.1227E+02
  18.040  0.2974E+00  0.1228E+02
  18.060  0.3025E+00  0.1228E+02
  18.080  0.3073E+00  0.1229E+02
  18.100  0.3116E+00  0.1230E+02
  18.120  0.3150E+00  0.1230E+02
  18.140  0.3174E+00  0.1231E+02
  18.160  0.3187E+00  0.1232E+02
  18.180  0.3189E+00  0.1232E+02
  18.200  0.3179E+00  0.1233E+02
  18.220  0.3159E+00  0.1233E+02
  18.240  0.3130E+00  0.1234E+02
  18.260  0.3096E+00  0.1235E+02
  18.280  0.3057E+00  0.1235E+02
  18.300  0.3018E+00  0.1236E+02
  18.320  0.2980E+00  0.1236E+02
  18.340  0.2946E+00  0.1237E+02
  18.360  0.2916E+00  0.1238E+02
  18.380  0.2893E+00  0.1238E+02
  18.400  0.2876E+00  0.1239E+02
  18.420  0.2865E+00  0.1239E+02
  18.440  0.2859E+00  0.1240E+02
  18.460  0.2857E+00  0.1241E+02
  18.480  0.2856E+00  0.1241E+02
  18.500  0.2857E+00  0.1242E+02
  18.520  0.2856E+00  0.1242E+02
  18.540  0.2853E+00  0.1243E+02
  18.560  0.2846E+00  0.1243E+02
  18.580  0.2837E+00  0.1244E+02
  18.600  0.2824E+00  0.1245E+02
  18.620  0.2810E+00  0.1245E+02
  18.640  0.2794E+00  0.1246E+02
  18.660  0.2780E+00  0.1246E+02
  18.680  0.2767E+00  0.1247E+02
  18.700  0.2758E+00  0.1247E+02
  18.720  0.2755E+00  0.1248E+02
  18.740  0.2757E+00  0.1248E+02
  18.760  0.2766E+00  0.1249E+02
  18.780  0.2782E+00  0.1249E+02
  18.800  0.2804E+00  0.1250E+02
  18.820  0.2831E+00  0.1251E+02
  18.840  0.2860E+00  0.1251E+02
  18.860  0.2891E+00  0.1252E+02
  18.880  0.2920E+00  0.1252E+02
  18.900  0.2945E+00  0.1253E+02
  18.920  0.2963E+00  0.1254E+02
  18.940  0.2974E+00  0.1254E+02
  18.960  0.2974E+00  0.1255E+02
  18.980  0.2963E+00  0.1255E+02
  19.000  0.2939E+00  0.1256E+02
  19.020  0.2905E+00  0.1256E+02
  19.040  0.2859E+00  0.1257E+02
  19.060  0.2803E+00  0.1258E+02
  19.080  0.2740E+00  0.1258E+02
  19.100  0.2673E+00  0.1259E+02
  19.120  0.2603E+00  0.1259E+02
  19.140  0.2534E+00  0.1260E+02
  19.160  0.2469E+00  0.1260E+02
  19.180  0.2412E+00  0.1261E+02
  19.200  0.2363E+00  0.1261E+02
  19.220  0.2327E+00  0.1262E+02
  19.240  0.2303E+00  0.1262E+02
  19.260  0.2293E+00  0.1263E+02
  19.280  0.2297E+00  0.1263E+02
  19.300  0.2313E+00  0.1263E+02
  19.320  0.2342E+00  0.1264E+02
  19.340  0.2381E+00  0.1264E+02
  19.360  0.2428E+00  0.1265E+02
  19.380  0.2480E+00  0.1265E+02
  19.400  0.2535E+00  0.1266E+02
  19.420  0.2589E+00  0.1266E+02
  19.440  0.2641E+00  0.1267E+02
  19.460  0.2688E+00  0.1268E+02
  19.480  0.2729E+00  0.1268E+02
  19.500  0.2763E+00  0.1269E+02
  19.520  0.2788E+00  0.1269E+02
  19.540  0.2807E+00  0.1270E+02
  19.560  0.2818E+00  0.1270E+02
  19.580  0.2824E+00  0.1271E+02
  19.600  0.2827E+00  0.1271E+02
  19.620  0.2828E+00  0.1272E+02
  19.640  0.2831E+00  0.1273E+02
  19.660  0.2837E+00  0.1273E+02
  19.680  0.2848E+00  0.1274E+02
  19.700  0.2867E+00  0.1274E+02
  19.720  0.2894E+00  0.1275E+02
  19.740  0.2930E+00  0.1275E+02
  19.760  0.2976E+00  0.1276E+02
  19.780  0.3029E+00  0.1277E+02
  19.800  0.3090E+00  0.1277E+02
  19.820  0.3155E+00  0.1278E+02
  19.840  0.3224E+00  0.1279E+02
  19.860  0.3293E+00  0.1279E+02
  19.880  0.3360E+00  0.1280E+02
  19.900  0.3424E+00  0.1281E+02
  19.920  0.3481E+00  0.1281E+02
  19.940  0.3531E+00  0.1282E+02
  19.960  0.3573E+00  0.1283E+02
  19.980  0.3605E+00  0.1283E+02
  20.000  0.3630E+00  0.1284E+02
  20.020  0.3647E+00  0.1285E+02
  20.040  0.3657E+00  0.1286E+02
  20.060  0.3663E+00  0.1286E+02
  20.080  0.3666E+00  0.1287E+02
  20.100  0.3668E+00  0.1288E+02
  20.120  0.3672E+00  0.1288E+02
  20.140  0.3679E+00  0.1289E+02
  20.160  0.3691E+00  0.1290E+02
  20.180  0.3710E+00  0.1291E+02
  20.200  0.3737E+00  0.1291E+02
  20.220  0.3771E+00  0.1292E+02
  20.240  0.3813E+00  0.1293E+02
  20.260  0.3863E+00  0.1294E+02
  20.280  0.3921E+00  0.1295E+02
  20.300  0.3984E+00  0.1295E+02
  20.320  0.4051E+00  0.1296E+02
  20.340  0.4122E+00  0.1297E+02
  20.360  0.4193E+00  0.1298E+02
  20.380  0.4262E+00  0.1299E+02
  20.400  0.4329E+00  0.1300E+02
  20.420  0.4389E+00  0.1300E+02
  20.440  0.4442E+00  0.1301E+02
  20.460  0.4484E+00  0.1302E+02
  20.480  0.4515E+00  0.1303E+02
  20.500  0.4534E+00  0.1304E+02
  20.520  0.4538E+00  0.1305E+02
  20.540  0.4527E+00  0.1306E+02
  20.560  0.4502E+00  0.1307E+02
  20.580  0.4462E+00  0.1308E+02
  20.600  0.4409E+00  0.1308E+02
  20.620  0.4343E+00  0.1309E+02
  20.640  0.4268E+00  0.1310E+02
  20.660  0.4184E+00  0.1311E+02
  20.680  0.4095E+00  0.1312E+02
  20.700  0.4005E+00  0.1313E+02
  20.720  0.3916E+00  0.1313E+02
  20.740  0.3833E+00  0.1314E+02
  20.760  0.3759E+00  0.1315E+02
  20.780  0.3698E+00  0.1316E+02
  20.800  0.3653E+00  0.1316E+02
  20.820  0.3626E+00  0.1317E+02
  20.840  0.3621E+00  0.1318E+02
  20.860  0.3639E+00  0.1319E+02
  20.880  0.3680E+00  0.1319E+02
  20.900  0.3744E+00  0.1320E+02
  20.920  0.3829E+00  0.1321E+02
  20.940  0.3934E+00  0.1322E+02
  20.960  0.4054E+00  0.1322E+02
  20.980  0.4185E+00  0.1323E+02
  21.000  0.4323E+00  0.1324E+02
  21.020  0.4461E+00  0.1325E+02
  21.040  0.4595E+00  0.1326E+02
  21.060  0.4717E+00  0.1327E+02
  21.080  0.4825E+00  0.1328E+02
  21.100  0.4911E+00  0.1329E+02
  21.120  0.4974E+00  0.1330E+02
  21.140  0.5009E+00  0.1331E+02
  21.160  0.5016E+00  0.1332E+02
  21.180  0.4993E+00  0.1333E+02
  21.200  0.4942E+00  0.1334E+02
  21.220  0.4866E+00  0.1335E+02
  21.240  0.4766E+00  0.1336E+02
  21.260  0.4648E+00  0.1337E+02
  21.280  0.4515E+00  0.1338E+02
  21.300  0.4374E+00  0.1338E+02
  21.320  0.4230E+00  0.1339E+02
  21.340  0.4089E+00  0.1340E+02
  21.360  0.3955E+00  0.1341E+02
  21.380  0.3833E+00  0.1342E+02
  21.400  0.3728E+00  0.1342E+02
  21.420  0.3641E+00  0.1343E+02
  21.440  0.3577E+00  0.1344E+02
  21.460  0.3535E+00  0.1345E+02
  21.480  0.3516E+00  0.1345E+02
  21.500  0.3520E+00  0.1346E+02
  21.520  0.3545E+00  0.1347E+02
  21.540  0.3589E+00  0.1347E+02
  21.560  0.3649E+00  0.1348E+02
  21.580  0.3722E+00  0.1349E+02
  21.600  0.3805E+00  0.1350E+02
  21.620  0.3895E+00  0.1350E+02
  21.640  0.3988E+00  0.1351E+02
  21.660  0.4081E+00  0.1352E+02
  21.680  0.4172E+00  0.1353E+02
  21.700  0.4258E+00  0.1354E+02
  21.720  0.4337E+00  0.1355E+02
  21.740  0.4408E+00  0.1355E+02
  21.760  0.4469E+00  0.1356E+02
  21.780  0.4519E+00  0.1357E+02
  21.800  0.4558E+00  0.1358E+02
  21.820  0.4586E+00  0.1359E+02
  21.840  0.4603E+00  0.1360E+02
  21.860  0.4610E+00  0.1361E+02
  21.880  0.4607E+00  0.1362E+02
  21.900  0.4596E+00  0.1363E+02
  21.920  0.4577E+00  0.1364E+02
  21.940  0.4553E+00  0.1365E+02
  21.960  0.4524E+00  0.1366E+02
  21.980  0.4493E+00  0.1366E+02
  22.000  0.4460E+00  0.1367E+02
  22.020  0.4426E+00  0.1368E+02
  22.040  0.4394E+00  0.1369E+02
  22.060  0.4364E+00  0.1370E+02
  22.080  0.4337E+00  0.1371E+02
  22.100  0.4314E+00  0.1372E+02
  22.120  0.4295E+00  0.1373E+02
  22.140  0.4280E+00  0.1373E+02
  22.160  0.4271E+00  0.1374E+02
  22.180  0.4266E+00  0.1375E+02
  22.200  0.4265E+00  0.1376E+02
  22.220  0.4269E+00  0.1377E+02
  22.240  0.4278E+00  0.1378E+02
  22.260  0.4290E+00  0.1379E+02
  22.280  0.4307E+00  0.1379E+02
  22.300  0.4329E+00  0.1380E+02
  22.320  0.4354E+00  0.1381E+02
  22.340  0.4383E+00  0.1382E+02
  22.360  0.4415E+00  0.1383E+02
  22.380  0.4451E+00  0.1384E+02
  22.400  0.4489E+00  0.1385E+02
  22.420  0.4528E+00  0.1386E+02
  22.440  0.4567E+00  0.1386E+02
  22.460  0.4606E+00  0.1387E+02
  22.480  0.4641E+00  0.1388E+02
  22.500  0.4672E+00  0.1389E+02
  22.520  0.4696E+00  0.1390E+02
  22.540  0.4713E+00  0.1391E+02
  22.560  0.4721E+00  0.1392E+02
  22.580  0.4719E+00  0.1393E+02
  22.600  0.4707E+00  0.1394E+02
  22.620  0.4684E+00  0.1395E+02
  22.640  0.4652E+00  0.1396E+02
  22.660  0.4611E+00  0.1397E+02
  22.680  0.4565E+00  0.1398E+02
  22.700  0.4515E+00  0.1399E+02
  22.720  0.4463E+00  0.1399E+02
  22.740  0.4414E+00  0.1400E+02
  22.760  0.4369E+00  0.1401E+02
  22.780  0.4332E+00  0.1402E+02
  22.800  0.4304E+00  0.1403E+02
  22.820  0.4288E+00  0.1404E+02
  22.840  0.4283E+00  0.1405E+02
  22.860  0.4290E+00  0.1406E+02
  22.880  0.4309E+00  0.1406E+02
  22.900  0.4338E+00  0.1407E+02
  22.920  0.4376E+00  0.1408E+02
  22.940  0.4418E+00  0.1409E+02
  22.960  0.4463E+00  0.1410E+02
  22.980  0.4509E+00  0.1411E+02
  23.000  0.4551E+00  0.1412E+02
  23.020  0.4588E+00  0.1413E+02
  23.040  0.4618E+00  0.1414E+02
  23.060  0.4640E+00  0.1415E+02
  23.080  0.4654E+00  0.1415E+02
  23.100  0.4659E+00  0.1416E+02
  23.120  0.4657E+00  0.1417E+02
  23.140  0.4650E+00  0.1418E+02
  23.160  0.4640E+00  0.1419E+02
  23.180  0.4630E+00  0.1420E+02
  23.200  0.4621E+00  0.1421E+02
  23.220  0.4618E+00  0.1422E+02
  23.240  0.4621E+00  0.1423E+02
  23.260  0.4634E+00  0.1424E+02
  23.280  0.4658E+00  0.1425E+02
  23.300  0.4692E+00  0.1426E+02
  23.320  0.4738E+00  0.1427E+02
  23.340  0.4794E+00  0.1428E+02
  23.360  0.4860E+00  0.1429E+02
  23.380  0.4932E+00  0.1430E+02
  23.400  0.5009E+00  0.1431E+02
  23.420  0.5087E+00  0.1432E+02
  23.440  0.5164E+00  0.1433E+02
  23.460  0.5235E+00  0.1434E+02
  23.480  0.5298E+00  0.1435E+02
  23.500  0.5350E+00  0.1436E+02
  23.520  0.5389E+00  0.1437E+02
  23.540  0.5412E+00  0.1438E+02
  23.560  0.5418E+00  0.1439E+02
  23.580  0.5407E+00  0.1440E+02
  23.600  0.5378E+00  0.1441E+02
  23.620  0.5333E+00  0.1442E+02
  23.640  0.5272E+00  0.1443E+02
  23.660  0.5198E+00  0.1444E+02
  23.680  0.5114E+00  0.1445E+02
  23.700  0.5023E+00  0.1446E+02
  23.720  0.4928E+00  0.1447E+02
  23.740  0.4833E+00  0.1448E+02
  23.760  0.4741E+00  0.1449E+02
  23.780  0.4657E+00  0.1450E+02
  23.800  0.4584E+00  0.1451E+02
  23.820  0.4526E+00  0.1452E+02
  23.840  0.4486E+00  0.1453E+02
  23.860  0.4466E+00  0.1454E+02
  23.880  0.4468E+00  0.1455E+02
  23.900  0.4493E+00  0.1456E+02
  23.920  0.4542E+00  0.1456E+02
  23.940  0.4614E+00  0.1457E+02
  23.960  0.4707E+00  0.1458E+02
  23.980  0.4819E+00  0.1459E+02
  24.000  0.4947E+00  0.1460E+02
  24.020  0.5086E+00  0.1461E+02
  24.040  0.5231E+00  0.1462E+02
  24.060  0.5379E+00  0.1463E+02
  24.080  0.5523E+00  0.1465E+02
  24.100  0.5658E+00  0.1466E+02
  24.120  0.5781E+00  0.1467E+02
  24.140  0.5886E+00  0.1468E+02
  24.160  0.5971E+00  0.1469E+02
  24.180  0.6033E+00  0.1470E+02
  24.200  0.6070E+00  0.1472E+02
  24.220  0.6084E+00  0.1473E+02
  24.240  0.6073E+00  0.1474E+02
  24.260  0.6040E+00  0.1475E+02
  24.280  0.5987E+00  0.1476E+02
  24.300  0.5917E+00  0.1478E+02
  24.320  0.5833E+00  0.1479E+02
  24.340  0.5740E+00  0.1480E+02
  24.360  0.5640E+00  0.1481E+02
  24.380  0.5538E+00  0.1482E+02
  24.400  0.5437E+00  0.1483E+02
  24.420  0.5341E+00  0.1484E+02
  24.440  0.5252E+00  0.1485E+02
  24.460  0.5173E+00  0.1486E+02
  24.480  0.5106E+00  0.1487E+02
  24.500  0.5053E+00  0.1488E+02
  24.520  0.5013E+00  0.1489E+02
  24.540  0.4988E+00  0.1490E+02
  24.560  0.4976E+00  0.1491E+02
  24.580  0.4977E+00  0.1492E+02
  24.600  0.4989E+00  0.1493E+02
  24.620  0.5010E+00  0.1494E+02
  24.640  0.5036E+00  0.1495E+02
  24.660  0.5067E+00  0.1496E+02
  24.680  0.5100E+00  0.1497E+02
  24.700  0.5132E+00  0.1499E+02
  24.720  0.5161E+00  0.1500E+02
  24.740  0.5187E+00  0.1501E+02
  24.760  0.5208E+00  0.1502E+02
  24.780  0.5225E+00  0.1503E+02
  24.800  0.5238E+00  0.1504E+02
  24.820  0.5247E+00  0.1505E+02
  24.840  0.5254E+00  0.1506E+02
  24.860  0.5260E+00  0.1507E+02
  24.880  0.5266E+00  0.1508E+02
  24.900  0.5273E+00  0.1509E+02
  24.920  0.5283E+00  0.1510E+02
  24.940  0.5294E+00  0.1511E+02
  24.960  0.5308E+00  0.1512E+02
  24.980  0.5324E+00  0.1513E+02
  25.000  0.5340E+00  0.1514E+02
