#  E (eV)   dos(E)     Int dos(E) EFermi =   13.005 eV
  -5.000 -0.4118E-81 -0.8237E-83
  -4.980 -0.4112E-81 -0.1646E-82
  -4.960 -0.4105E-81 -0.2467E-82
  -4.940 -0.4099E-81 -0.3287E-82
  -4.920 -0.4092E-81 -0.4105E-82
  -4.900 -0.4086E-81 -0.4922E-82
  -4.880 -0.4079E-81 -0.5738E-82
  -4.860 -0.4073E-81 -0.6553E-82
  -4.840 -0.4066E-81 -0.7366E-82
  -4.820 -0.4060E-81 -0.8178E-82
  -4.800 -0.4053E-81 -0.8989E-82
  -4.780 -0.4047E-81 -0.9798E-82
  -4.760 -0.4040E-81 -0.1061E-81
  -4.740 -0.4034E-81 -0.1141E-81
  -4.720 -0.4027E-81 -0.1222E-81
  -4.700 -0.4021E-81 -0.1302E-81
  -4.680 -0.4014E-81 -0.1383E-81
  -4.660 -0.4008E-81 -0.1463E-81
  -4.640 -0.4001E-81 -0.1543E-81
  -4.620 -0.3995E-81 -0.1623E-81
  -4.600 -0.3988E-81 -0.1702E-81
  -4.580 -0.3982E-81 -0.1782E-81
  -4.560 -0.3976E-81 -0.1862E-81
  -4.540 -0.3969E-81 -0.1941E-81
  -4.520 -0.3963E-81 -0.2020E-81
  -4.500 -0.3956E-81 -0.2099E-81
  -4.480 -0.3950E-81 -0.2178E-81
  -4.460 -0.3944E-81 -0.2257E-81
  -4.440 -0.3937E-81 -0.2336E-81
  -4.420 -0.3931E-81 -0.2414E-81
  -4.400 -0.3924E-81 -0.2493E-81
  -4.380 -0.3918E-81 -0.2571E-81
  -4.360 -0.3912E-81 -0.2650E-81
  -4.340 -0.3905E-81 -0.2728E-81
  -4.320 -0.3899E-81 -0.2806E-81
  -4.300 -0.3893E-81 -0.2884E-81
  -4.280 -0.3886E-81 -0.2961E-81
  -4.260 -0.3880E-81 -0.3039E-81
  -4.240 -0.3874E-81 -0.3116E-81
  -4.220 -0.3867E-81 -0.3194E-81
  -4.200 -0.3861E-81 -0.3271E-81
  -4.180 -0.3855E-81 -0.3348E-81
  -4.160 -0.3848E-81 -0.3425E-81
  -4.140 -0.3842E-81 -0.3502E-81
  -4.120 -0.3836E-81 -0.3578E-81
  -4.100 -0.3829E-81 -0.3655E-81
  -4.080 -0.3823E-81 -0.3732E-81
  -4.060 -0.3817E-81 -0.3808E-81
  -4.040 -0.3811E-81 -0.3884E-81
  -4.020 -0.3804E-81 -0.3960E-81
  -4.000 -0.3798E-81 -0.4036E-81
  -3.980 -0.3792E-81 -0.4112E-81
  -3.960 -0.3786E-81 -0.4188E-81
  -3.940 -0.3779E-81 -0.4263E-81
  -3.920 -0.3773E-81 -0.4339E-81
  -3.900 -0.3767E-81 -0.4414E-81
  -3.880 -0.3761E-81 -0.4489E-81
  -3.860 -0.3755E-81 -0.4564E-81
  -3.840 -0.3748E-81 -0.4639E-81
  -3.820 -0.3742E-81 -0.4714E-81
  -3.800 -0.3736E-81 -0.4789E-81
  -3.780 -0.3730E-81 -0.4863E-81
  -3.760 -0.3724E-81 -0.4938E-81
  -3.740 -0.3717E-81 -0.5012E-81
  -3.720 -0.3711E-81 -0.5087E-81
  -3.700 -0.3705E-81 -0.5161E-81
  -3.680 -0.3699E-81 -0.5235E-81
  -3.660 -0.3693E-81 -0.5308E-81
  -3.640 -0.3687E-81 -0.5382E-81
  -3.620 -0.3680E-81 -0.5456E-81
  -3.600 -0.3674E-81 -0.5529E-81
  -3.580 -0.3668E-81 -0.5603E-81
  -3.560 -0.3662E-81 -0.5676E-81
  -3.540 -0.3656E-81 -0.5749E-81
  -3.520 -0.3650E-81 -0.5822E-81
  -3.500 -0.3644E-81 -0.5895E-81
  -3.480 -0.3638E-81 -0.5968E-81
  -3.460 -0.3632E-81 -0.6040E-81
  -3.440 -0.3626E-81 -0.6113E-81
  -3.420 -0.3619E-81 -0.6185E-81
  -3.400 -0.3613E-81 -0.6257E-81
  -3.380 -0.3607E-81 -0.6330E-81
  -3.360 -0.3601E-81 -0.6402E-81
  -3.340 -0.3595E-81 -0.6474E-81
  -3.320 -0.3589E-81 -0.6545E-81
  -3.300 -0.3583E-81 -0.6617E-81
  -3.280 -0.3577E-81 -0.6689E-81
  -3.260 -0.3571E-81 -0.6760E-81
  -3.240 -0.3565E-81 -0.6831E-81
  -3.220 -0.3559E-81 -0.6902E-81
  -3.200 -0.3553E-81 -0.6973E-81
  -3.180 -0.3547E-81 -0.7044E-81
  -3.160 -0.3541E-81 -0.7115E-81
  -3.140 -0.3535E-81 -0.7186E-81
  -3.120 -0.3529E-81 -0.7257E-81
  -3.100 -0.3523E-81 -0.7327E-81
  -3.080 -0.3517E-81 -0.7397E-81
  -3.060 -0.3511E-81 -0.7468E-81
  -3.040 -0.3505E-81 -0.7538E-81
  -3.020 -0.3499E-81 -0.7608E-81
  -3.000 -0.3493E-81 -0.7678E-81
  -2.980 -0.3487E-81 -0.7747E-81
  -2.960 -0.3481E-81 -0.7817E-81
  -2.940 -0.3476E-81 -0.7886E-81
  -2.920 -0.3470E-81 -0.7956E-81
  -2.900 -0.3464E-81 -0.8025E-81
  -2.880 -0.3458E-81 -0.8094E-81
  -2.860 -0.3452E-81 -0.8163E-81
  -2.840 -0.3446E-81 -0.8232E-81
  -2.820 -0.3440E-81 -0.8301E-81
  -2.800 -0.3434E-81 -0.8370E-81
  -2.780 -0.3428E-81 -0.8438E-81
  -2.760 -0.3423E-81 -0.8507E-81
  -2.740 -0.3417E-81 -0.8575E-81
  -2.720 -0.3411E-81 -0.8643E-81
  -2.700 -0.3405E-81 -0.8711E-81
  -2.680 -0.3399E-81 -0.8779E-81
  -2.660 -0.3393E-81 -0.8847E-81
  -2.640 -0.3387E-81 -0.8915E-81
  -2.620 -0.3382E-81 -0.8983E-81
  -2.600 -0.3376E-81 -0.9050E-81
  -2.580 -0.3370E-81 -0.9117E-81
  -2.560 -0.3364E-81 -0.9185E-81
  -2.540 -0.3358E-81 -0.9252E-81
  -2.520 -0.3353E-81 -0.9319E-81
  -2.500 -0.3347E-81 -0.9386E-81
  -2.480 -0.3341E-81 -0.9453E-81
  -2.460 -0.3335E-81 -0.9519E-81
  -2.440 -0.3329E-81 -0.9586E-81
  -2.420 -0.3324E-81 -0.9653E-81
  -2.400 -0.3318E-81 -0.9719E-81
  -2.380 -0.3312E-81 -0.9785E-81
  -2.360 -0.3306E-81 -0.9851E-81
  -2.340 -0.3301E-81 -0.9917E-81
  -2.320 -0.3295E-81 -0.9983E-81
  -2.300 -0.3289E-81 -0.1005E-80
  -2.280 -0.3284E-81 -0.1011E-80
  -2.260 -0.3278E-81 -0.1018E-80
  -2.240 -0.3272E-81 -0.1025E-80
  -2.220 -0.3266E-81 -0.1031E-80
  -2.200 -0.3261E-81 -0.1038E-80
  -2.180 -0.3255E-81 -0.1044E-80
  -2.160 -0.3249E-81 -0.1051E-80
  -2.140 -0.3244E-81 -0.1057E-80
  -2.120 -0.3238E-81 -0.1064E-80
  -2.100 -0.3232E-81 -0.1070E-80
  -2.080 -0.3227E-81 -0.1077E-80
  -2.060 -0.3221E-81 -0.1083E-80
  -2.040 -0.3215E-81 -0.1089E-80
  -2.020 -0.3210E-81 -0.1096E-80
  -2.000 -0.3204E-81 -0.1102E-80
  -1.980 -0.3198E-81 -0.1109E-80
  -1.960 -0.3193E-81 -0.1115E-80
  -1.940 -0.3187E-81 -0.1121E-80
  -1.920 -0.3182E-81 -0.1128E-80
  -1.900 -0.3176E-81 -0.1134E-80
  -1.880 -0.3170E-81 -0.1140E-80
  -1.860 -0.3165E-81 -0.1147E-80
  -1.840 -0.3159E-81 -0.1153E-80
  -1.820 -0.3154E-81 -0.1159E-80
  -1.800 -0.3148E-81 -0.1166E-80
  -1.780 -0.3143E-81 -0.1172E-80
  -1.760 -0.3137E-81 -0.1178E-80
  -1.740 -0.3131E-81 -0.1184E-80
  -1.720 -0.3126E-81 -0.1191E-80
  -1.700 -0.3120E-81 -0.1197E-80
  -1.680 -0.3115E-81 -0.1203E-80
  -1.660 -0.3109E-81 -0.1209E-80
  -1.640 -0.3104E-81 -0.1216E-80
  -1.620 -0.3098E-81 -0.1222E-80
  -1.600 -0.3093E-81 -0.1228E-80
  -1.580 -0.3087E-81 -0.1234E-80
  -1.560 -0.3082E-81 -0.1240E-80
  -1.540 -0.3076E-81 -0.1247E-80
  -1.520 -0.3071E-81 -0.1253E-80
  -1.500 -0.3065E-81 -0.1259E-80
  -1.480 -0.3060E-81 -0.1265E-80
  -1.460 -0.3054E-81 -0.1271E-80
  -1.440 -0.3049E-81 -0.1277E-80
  -1.420 -0.3043E-81 -0.1283E-80
  -1.400 -0.3038E-81 -0.1289E-80
  -1.380 -0.3033E-81 -0.1295E-80
  -1.360 -0.3027E-81 -0.1301E-80
  -1.340 -0.3022E-81 -0.1307E-80
  -1.320 -0.3016E-81 -0.1313E-80
  -1.300 -0.3011E-81 -0.1319E-80
  -1.280 -0.3005E-81 -0.1325E-80
  -1.260 -0.3000E-81 -0.1331E-80
  -1.240 -0.2995E-81 -0.1337E-80
  -1.220 -0.2989E-81 -0.1343E-80
  -1.200 -0.2984E-81 -0.1349E-80
  -1.180 -0.2978E-81 -0.1355E-80
  -1.160 -0.2973E-81 -0.1361E-80
  -1.140 -0.2968E-81 -0.1367E-80
  -1.120 -0.2962E-81 -0.1373E-80
  -1.100 -0.2957E-81 -0.1379E-80
  -1.080 -0.2952E-81 -0.1385E-80
  -1.060 -0.2946E-81 -0.1391E-80
  -1.040 -0.2941E-81 -0.1397E-80
  -1.020 -0.2936E-81 -0.1403E-80
  -1.000 -0.2930E-81 -0.1409E-80
  -0.980 -0.2925E-81 -0.1414E-80
  -0.960 -0.2920E-81 -0.1420E-80
  -0.940 -0.2914E-81 -0.1426E-80
  -0.920 -0.2909E-81 -0.1432E-80
  -0.900 -0.2904E-81 -0.1438E-80
  -0.880 -0.2898E-81 -0.1443E-80
  -0.860 -0.2893E-81 -0.1449E-80
  -0.840 -0.2888E-81 -0.1455E-80
  -0.820 -0.2883E-81 -0.1461E-80
  -0.800 -0.2877E-81 -0.1467E-80
  -0.780 -0.2872E-81 -0.1472E-80
  -0.760 -0.2867E-81 -0.1478E-80
  -0.740 -0.2862E-81 -0.1484E-80
  -0.720 -0.2856E-81 -0.1489E-80
  -0.700 -0.2851E-81 -0.1495E-80
  -0.680 -0.2846E-81 -0.1501E-80
  -0.660 -0.2841E-81 -0.1507E-80
  -0.640 -0.2836E-81 -0.1512E-80
  -0.620 -0.2830E-81 -0.1518E-80
  -0.600 -0.2825E-81 -0.1524E-80
  -0.580 -0.2820E-81 -0.1529E-80
  -0.560 -0.2815E-81 -0.1535E-80
  -0.540 -0.2810E-81 -0.1540E-80
  -0.520 -0.2804E-81 -0.1546E-80
  -0.500 -0.2799E-81 -0.1552E-80
  -0.480 -0.2794E-81 -0.1557E-80
  -0.460 -0.2789E-81 -0.1563E-80
  -0.440 -0.2784E-81 -0.1568E-80
  -0.420 -0.2779E-81 -0.1574E-80
  -0.400 -0.2773E-81 -0.1579E-80
  -0.380 -0.2768E-81 -0.1585E-80
  -0.360 -0.2763E-81 -0.1591E-80
  -0.340 -0.2758E-81 -0.1596E-80
  -0.320 -0.2753E-81 -0.1602E-80
  -0.300 -0.2748E-81 -0.1607E-80
  -0.280 -0.2743E-81 -0.1613E-80
  -0.260 -0.2738E-81 -0.1618E-80
  -0.240 -0.2733E-81 -0.1623E-80
  -0.220 -0.2728E-81 -0.1629E-80
  -0.200 -0.2722E-81 -0.1634E-80
  -0.180 -0.2717E-81 -0.1640E-80
  -0.160 -0.2712E-81 -0.1645E-80
  -0.140 -0.2707E-81 -0.1651E-80
  -0.120 -0.2702E-81 -0.1656E-80
  -0.100 -0.2697E-81 -0.1661E-80
  -0.080 -0.2692E-81 -0.1667E-80
  -0.060 -0.2687E-81 -0.1672E-80
  -0.040 -0.2682E-81 -0.1678E-80
  -0.020 -0.2677E-81 -0.1683E-80
   0.000 -0.2672E-81 -0.1688E-80
   0.020 -0.2667E-81 -0.1694E-80
   0.040 -0.2662E-81 -0.1699E-80
   0.060 -0.2657E-81 -0.1704E-80
   0.080 -0.2652E-81 -0.1710E-80
   0.100 -0.2647E-81 -0.1715E-80
   0.120 -0.2642E-81 -0.1720E-80
   0.140 -0.2637E-81 -0.1725E-80
   0.160 -0.2632E-81 -0.1731E-80
   0.180 -0.2627E-81 -0.1736E-80
   0.200 -0.2622E-81 -0.1741E-80
   0.220 -0.2617E-81 -0.1746E-80
   0.240 -0.2612E-81 -0.1752E-80
   0.260 -0.2607E-81 -0.1757E-80
   0.280 -0.2602E-81 -0.1762E-80
   0.300 -0.2598E-81 -0.1767E-80
   0.320 -0.2593E-81 -0.1772E-80
   0.340 -0.2588E-81 -0.1778E-80
   0.360 -0.2583E-81 -0.1783E-80
   0.380 -0.2578E-81 -0.1788E-80
   0.400 -0.2573E-81 -0.1793E-80
   0.420 -0.2568E-81 -0.1798E-80
   0.440 -0.2563E-81 -0.1803E-80
   0.460 -0.2558E-81 -0.1808E-80
   0.480 -0.2554E-81 -0.1814E-80
   0.500 -0.2549E-81 -0.1819E-80
   0.520 -0.2544E-81 -0.1824E-80
   0.540 -0.2539E-81 -0.1829E-80
   0.560 -0.2534E-81 -0.1834E-80
   0.580 -0.2529E-81 -0.1839E-80
   0.600 -0.2524E-81 -0.1844E-80
   0.620 -0.2520E-81 -0.1849E-80
   0.640 -0.2515E-81 -0.1854E-80
   0.660 -0.2510E-81 -0.1859E-80
   0.680 -0.2505E-81 -0.1864E-80
   0.700 -0.2500E-81 -0.1869E-80
   0.720 -0.2496E-81 -0.1874E-80
   0.740 -0.2491E-81 -0.1879E-80
   0.760 -0.2486E-81 -0.1884E-80
   0.780 -0.2481E-81 -0.1889E-80
   0.800 -0.2477E-81 -0.1894E-80
   0.820 -0.2472E-81 -0.1899E-80
   0.840 -0.2467E-81 -0.1904E-80
   0.860 -0.2462E-81 -0.1909E-80
   0.880 -0.2458E-81 -0.1914E-80
   0.900 -0.2453E-81 -0.1919E-80
   0.920 -0.2448E-81 -0.1923E-80
   0.940 -0.2443E-81 -0.1928E-80
   0.960 -0.2439E-81 -0.1933E-80
   0.980 -0.2434E-81 -0.1938E-80
   1.000 -0.2429E-81 -0.1943E-80
   1.020 -0.2425E-81 -0.1948E-80
   1.040 -0.2420E-81 -0.1953E-80
   1.060 -0.2415E-81 -0.1957E-80
   1.080 -0.2410E-81 -0.1962E-80
   1.100 -0.2406E-81 -0.1967E-80
   1.120 -0.2401E-81 -0.1972E-80
   1.140 -0.2396E-81 -0.1977E-80
   1.160 -0.2392E-81 -0.1981E-80
   1.180 -0.2387E-81 -0.1986E-80
   1.200 -0.2383E-81 -0.1991E-80
   1.220 -0.2378E-81 -0.1996E-80
   1.240 -0.2373E-81 -0.2001E-80
   1.260 -0.2369E-81 -0.2005E-80
   1.280 -0.2364E-81 -0.2010E-80
   1.300 -0.2359E-81 -0.2015E-80
   1.320 -0.2355E-81 -0.2019E-80
   1.340 -0.2350E-81 -0.2024E-80
   1.360 -0.2346E-81 -0.2029E-80
   1.380 -0.2341E-81 -0.2033E-80
   1.400 -0.2340E-81 -0.2038E-80
   1.420 -0.2355E-81 -0.2043E-80
   1.440 -0.2502E-81 -0.2048E-80
   1.460 -0.3617E-81 -0.2055E-80
   1.480 -0.1182E-80 -0.2079E-80
   1.500 -0.7128E-80 -0.2221E-80
   1.520 -0.4976E-79 -0.3216E-80
   1.540 -0.3521E-78 -0.1026E-79
   1.560 -0.2473E-77 -0.5971E-79
   1.580 -0.1719E-76 -0.4035E-78
   1.600 -0.1182E-75 -0.2767E-77
   1.620 -0.8038E-75 -0.1884E-76
   1.640 -0.5408E-74 -0.1270E-75
   1.660 -0.3600E-73 -0.8469E-75
   1.680 -0.2370E-72 -0.5587E-74
   1.700 -0.1543E-71 -0.3645E-73
   1.720 -0.9942E-71 -0.2353E-72
   1.740 -0.6335E-70 -0.1502E-71
   1.760 -0.3994E-69 -0.9489E-71
   1.780 -0.2490E-68 -0.5929E-70
   1.800 -0.1536E-67 -0.3665E-69
   1.820 -0.9370E-67 -0.2240E-68
   1.840 -0.5655E-66 -0.1355E-67
   1.860 -0.3376E-65 -0.8107E-67
   1.880 -0.1994E-64 -0.4798E-66
   1.900 -0.1164E-63 -0.2809E-65
   1.920 -0.6728E-63 -0.1627E-64
   1.940 -0.3846E-62 -0.9318E-64
   1.960 -0.2174E-61 -0.5280E-63
   1.980 -0.1216E-60 -0.2960E-62
   2.000 -0.6727E-60 -0.1641E-61
   2.020 -0.3681E-59 -0.9003E-61
   2.040 -0.1992E-58 -0.4885E-60
   2.060 -0.1067E-57 -0.2622E-59
   2.080 -0.5650E-57 -0.1392E-58
   2.100 -0.2960E-56 -0.7312E-58
   2.120 -0.1534E-55 -0.3799E-57
   2.140 -0.7862E-55 -0.1952E-56
   2.160 -0.3987E-54 -0.9926E-56
   2.180 -0.2000E-53 -0.4992E-55
   2.200 -0.9920E-53 -0.2483E-54
   2.220 -0.4868E-52 -0.1222E-53
   2.240 -0.2363E-51 -0.5948E-53
   2.260 -0.1135E-50 -0.2864E-52
   2.280 -0.5389E-50 -0.1364E-51
   2.300 -0.2532E-49 -0.6428E-51
   2.320 -0.1177E-48 -0.2996E-50
   2.340 -0.5409E-48 -0.1381E-49
   2.360 -0.2459E-47 -0.6300E-49
   2.380 -0.1106E-46 -0.2842E-48
   2.400 -0.4921E-46 -0.1268E-47
   2.420 -0.2165E-45 -0.5599E-47
   2.440 -0.9425E-45 -0.2445E-46
   2.460 -0.4058E-44 -0.1056E-45
   2.480 -0.1728E-43 -0.4512E-45
   2.500 -0.7280E-43 -0.1907E-44
   2.520 -0.3033E-42 -0.7974E-44
   2.540 -0.1250E-41 -0.3298E-43
   2.560 -0.5097E-41 -0.1349E-42
   2.580 -0.2055E-40 -0.5460E-42
   2.600 -0.8199E-40 -0.2186E-41
   2.620 -0.3235E-39 -0.8655E-41
   2.640 -0.1262E-38 -0.3390E-40
   2.660 -0.4873E-38 -0.1314E-39
   2.680 -0.1861E-37 -0.5035E-39
   2.700 -0.7027E-37 -0.1909E-38
   2.720 -0.2625E-36 -0.7158E-38
   2.740 -0.9699E-36 -0.2656E-37
   2.760 -0.3545E-35 -0.9745E-37
   2.780 -0.1281E-34 -0.3537E-36
   2.800 -0.4582E-34 -0.1270E-35
   2.820 -0.1621E-33 -0.4511E-35
   2.840 -0.5669E-33 -0.1585E-34
   2.860 -0.1962E-32 -0.5508E-34
   2.880 -0.6714E-32 -0.1894E-33
   2.900 -0.2273E-31 -0.6439E-33
   2.920 -0.7610E-31 -0.2166E-32
   2.940 -0.2520E-30 -0.7207E-32
   2.960 -0.8257E-30 -0.2372E-31
   2.980 -0.2675E-29 -0.7723E-31
   3.000 -0.8574E-29 -0.2487E-30
   3.020 -0.2718E-28 -0.7923E-30
   3.040 -0.8522E-28 -0.2497E-29
   3.060 -0.2643E-27 -0.7782E-29
   3.080 -0.8106E-27 -0.2399E-28
   3.100 -0.2459E-26 -0.7318E-28
   3.120 -0.7380E-26 -0.2208E-27
   3.140 -0.2190E-25 -0.6589E-27
   3.160 -0.6431E-25 -0.1945E-26
   3.180 -0.1867E-24 -0.5680E-26
   3.200 -0.5363E-24 -0.1641E-25
   3.220 -0.1523E-23 -0.4687E-25
   3.240 -0.4280E-23 -0.1325E-24
   3.260 -0.1189E-22 -0.3704E-24
   3.280 -0.3269E-22 -0.1024E-23
   3.300 -0.8888E-22 -0.2802E-23
   3.320 -0.2390E-21 -0.7582E-23
   3.340 -0.6356E-21 -0.2029E-22
   3.360 -0.1672E-20 -0.5374E-22
   3.380 -0.4350E-20 -0.1407E-21
   3.400 -0.1120E-19 -0.3647E-21
   3.420 -0.2850E-19 -0.9346E-21
   3.440 -0.7174E-19 -0.2369E-20
   3.460 -0.1786E-18 -0.5942E-20
   3.480 -0.4399E-18 -0.1474E-19
   3.500 -0.1072E-17 -0.3617E-19
   3.520 -0.2582E-17 -0.8782E-19
   3.540 -0.6153E-17 -0.2109E-18
   3.560 -0.1450E-16 -0.5010E-18
   3.580 -0.3381E-16 -0.1177E-17
   3.600 -0.7797E-16 -0.2737E-17
   3.620 -0.1778E-15 -0.6293E-17
   3.640 -0.4012E-15 -0.1432E-16
   3.660 -0.8952E-15 -0.3222E-16
   3.680 -0.1976E-14 -0.7174E-16
   3.700 -0.4313E-14 -0.1580E-15
   3.720 -0.9314E-14 -0.3443E-15
   3.740 -0.1989E-13 -0.7422E-15
   3.760 -0.4203E-13 -0.1583E-14
   3.780 -0.8783E-13 -0.3339E-14
   3.800 -0.1816E-12 -0.6970E-14
   3.820 -0.3712E-12 -0.1439E-13
   3.840 -0.7508E-12 -0.2941E-13
   3.860 -0.1502E-11 -0.5945E-13
   3.880 -0.2973E-11 -0.1189E-12
   3.900 -0.5820E-11 -0.2353E-12
   3.920 -0.1127E-10 -0.4607E-12
   3.940 -0.2159E-10 -0.8926E-12
   3.960 -0.4092E-10 -0.1711E-11
   3.980 -0.7673E-10 -0.3246E-11
   4.000 -0.1423E-09 -0.6092E-11
   4.020 -0.2611E-09 -0.1131E-10
   4.040 -0.4740E-09 -0.2080E-10
   4.060 -0.8513E-09 -0.3782E-10
   4.080 -0.1513E-08 -0.6808E-10
   4.100 -0.2659E-08 -0.1213E-09
   4.120 -0.4625E-08 -0.2138E-09
   4.140 -0.7958E-08 -0.3729E-09
   4.160 -0.1355E-07 -0.6439E-09
   4.180 -0.2282E-07 -0.1100E-08
   4.200 -0.3804E-07 -0.1861E-08
   4.220 -0.6273E-07 -0.3116E-08
   4.240 -0.1023E-06 -0.5163E-08
   4.260 -0.1652E-06 -0.8467E-08
   4.280 -0.2639E-06 -0.1375E-07
   4.300 -0.4171E-06 -0.2209E-07
   4.320 -0.6522E-06 -0.3513E-07
   4.340 -0.1009E-05 -0.5531E-07
   4.360 -0.1545E-05 -0.8621E-07
   4.380 -0.2339E-05 -0.1330E-06
   4.400 -0.3504E-05 -0.2031E-06
   4.420 -0.5193E-05 -0.3069E-06
   4.440 -0.7612E-05 -0.4592E-06
   4.460 -0.1104E-04 -0.6799E-06
   4.480 -0.1583E-04 -0.9965E-06
   4.500 -0.2245E-04 -0.1445E-05
   4.520 -0.3148E-04 -0.2075E-05
   4.540 -0.4364E-04 -0.2948E-05
   4.560 -0.5981E-04 -0.4144E-05
   4.580 -0.8102E-04 -0.5765E-05
   4.600 -0.1084E-03 -0.7933E-05
   4.620 -0.1434E-03 -0.1080E-04
   4.640 -0.1872E-03 -0.1455E-04
   4.660 -0.2414E-03 -0.1937E-04
   4.680 -0.3071E-03 -0.2552E-04
   4.700 -0.3855E-03 -0.3322E-04
   4.720 -0.4770E-03 -0.4277E-04
   4.740 -0.5816E-03 -0.5440E-04
   4.760 -0.6981E-03 -0.6836E-04
   4.780 -0.8242E-03 -0.8484E-04
   4.800 -0.9559E-03 -0.1040E-03
   4.820 -0.1087E-02 -0.1257E-03
   4.840 -0.1210E-02 -0.1499E-03
   4.860 -0.1314E-02 -0.1762E-03
   4.880 -0.1386E-02 -0.2039E-03
   4.900 -0.1412E-02 -0.2322E-03
   4.920 -0.1373E-02 -0.2596E-03
   4.940 -0.1251E-02 -0.2846E-03
   4.960 -0.1027E-02 -0.3052E-03
   4.980 -0.6789E-03 -0.3187E-03
   5.000 -0.1890E-03 -0.3225E-03
   5.020  0.4605E-03 -0.3133E-03
   5.040  0.1284E-02 -0.2876E-03
   5.060  0.2293E-02 -0.2418E-03
   5.080  0.3495E-02 -0.1719E-03
   5.100  0.4890E-02 -0.7407E-04
   5.120  0.6477E-02  0.5548E-04
   5.140  0.8250E-02  0.2205E-03
   5.160  0.1020E-01  0.4244E-03
   5.180  0.1231E-01  0.6706E-03
   5.200  0.1457E-01  0.9619E-03
   5.220  0.1696E-01  0.1301E-02
   5.240  0.1947E-01  0.1691E-02
   5.260  0.2210E-01  0.2132E-02
   5.280  0.2482E-01  0.2629E-02
   5.300  0.2763E-01  0.3181E-02
   5.320  0.3051E-01  0.3792E-02
   5.340  0.3346E-01  0.4461E-02
   5.360  0.3646E-01  0.5190E-02
   5.380  0.3948E-01  0.5980E-02
   5.400  0.4251E-01  0.6830E-02
   5.420  0.4550E-01  0.7740E-02
   5.440  0.4842E-01  0.8708E-02
   5.460  0.5122E-01  0.9733E-02
   5.480  0.5386E-01  0.1081E-01
   5.500  0.5629E-01  0.1194E-01
   5.520  0.5847E-01  0.1311E-01
   5.540  0.6039E-01  0.1431E-01
   5.560  0.6203E-01  0.1555E-01
   5.580  0.6340E-01  0.1682E-01
   5.600  0.6454E-01  0.1811E-01
   5.620  0.6550E-01  0.1942E-01
   5.640  0.6636E-01  0.2075E-01
   5.660  0.6720E-01  0.2209E-01
   5.680  0.6813E-01  0.2346E-01
   5.700  0.6923E-01  0.2484E-01
   5.720  0.7060E-01  0.2625E-01
   5.740  0.7230E-01  0.2770E-01
   5.760  0.7439E-01  0.2919E-01
   5.780  0.7688E-01  0.3072E-01
   5.800  0.7975E-01  0.3232E-01
   5.820  0.8294E-01  0.3398E-01
   5.840  0.8636E-01  0.3570E-01
   5.860  0.8990E-01  0.3750E-01
   5.880  0.9342E-01  0.3937E-01
   5.900  0.9676E-01  0.4131E-01
   5.920  0.9978E-01  0.4330E-01
   5.940  0.1023E+00  0.4535E-01
   5.960  0.1043E+00  0.4744E-01
   5.980  0.1056E+00  0.4955E-01
   6.000  0.1061E+00  0.5167E-01
   6.020  0.1059E+00  0.5379E-01
   6.040  0.1049E+00  0.5589E-01
   6.060  0.1032E+00  0.5795E-01
   6.080  0.1010E+00  0.5997E-01
   6.100  0.9821E-01  0.6193E-01
   6.120  0.9515E-01  0.6384E-01
   6.140  0.9196E-01  0.6568E-01
   6.160  0.8885E-01  0.6745E-01
   6.180  0.8602E-01  0.6917E-01
   6.200  0.8369E-01  0.7085E-01
   6.220  0.8210E-01  0.7249E-01
   6.240  0.8147E-01  0.7412E-01
   6.260  0.8205E-01  0.7576E-01
   6.280  0.8411E-01  0.7744E-01
   6.300  0.8791E-01  0.7920E-01
   6.320  0.9376E-01  0.8107E-01
   6.340  0.1020E+00  0.8312E-01
   6.360  0.1130E+00  0.8538E-01
   6.380  0.1272E+00  0.8792E-01
   6.400  0.1450E+00  0.9082E-01
   6.420  0.1670E+00  0.9416E-01
   6.440  0.1937E+00  0.9803E-01
   6.460  0.2255E+00  0.1025E+00
   6.480  0.2631E+00  0.1078E+00
   6.500  0.3070E+00  0.1139E+00
   6.520  0.3576E+00  0.1211E+00
   6.540  0.4153E+00  0.1294E+00
   6.560  0.4805E+00  0.1390E+00
   6.580  0.5532E+00  0.1501E+00
   6.600  0.6335E+00  0.1627E+00
   6.620  0.7212E+00  0.1772E+00
   6.640  0.8162E+00  0.1935E+00
   6.660  0.9181E+00  0.2119E+00
   6.680  0.1026E+01  0.2324E+00
   6.700  0.1140E+01  0.2552E+00
   6.720  0.1259E+01  0.2804E+00
   6.740  0.1382E+01  0.3080E+00
   6.760  0.1508E+01  0.3381E+00
   6.780  0.1637E+01  0.3709E+00
   6.800  0.1767E+01  0.4062E+00
   6.820  0.1898E+01  0.4442E+00
   6.840  0.2029E+01  0.4847E+00
   6.860  0.2158E+01  0.5279E+00
   6.880  0.2286E+01  0.5736E+00
   6.900  0.2410E+01  0.6218E+00
   6.920  0.2531E+01  0.6725E+00
   6.940  0.2647E+01  0.7254E+00
   6.960  0.2756E+01  0.7805E+00
   6.980  0.2858E+01  0.8377E+00
   7.000  0.2952E+01  0.8967E+00
   7.020  0.3036E+01  0.9574E+00
   7.040  0.3110E+01  0.1020E+01
   7.060  0.3172E+01  0.1083E+01
   7.080  0.3222E+01  0.1148E+01
   7.100  0.3259E+01  0.1213E+01
   7.120  0.3283E+01  0.1278E+01
   7.140  0.3293E+01  0.1344E+01
   7.160  0.3290E+01  0.1410E+01
   7.180  0.3274E+01  0.1475E+01
   7.200  0.3246E+01  0.1540E+01
   7.220  0.3207E+01  0.1605E+01
   7.240  0.3158E+01  0.1668E+01
   7.260  0.3099E+01  0.1730E+01
   7.280  0.3034E+01  0.1790E+01
   7.300  0.2963E+01  0.1850E+01
   7.320  0.2887E+01  0.1907E+01
   7.340  0.2809E+01  0.1964E+01
   7.360  0.2730E+01  0.2018E+01
   7.380  0.2652E+01  0.2071E+01
   7.400  0.2575E+01  0.2123E+01
   7.420  0.2503E+01  0.2173E+01
   7.440  0.2435E+01  0.2221E+01
   7.460  0.2373E+01  0.2269E+01
   7.480  0.2318E+01  0.2315E+01
   7.500  0.2270E+01  0.2361E+01
   7.520  0.2230E+01  0.2405E+01
   7.540  0.2199E+01  0.2449E+01
   7.560  0.2176E+01  0.2493E+01
   7.580  0.2162E+01  0.2536E+01
   7.600  0.2156E+01  0.2579E+01
   7.620  0.2158E+01  0.2622E+01
   7.640  0.2167E+01  0.2666E+01
   7.660  0.2182E+01  0.2709E+01
   7.680  0.2203E+01  0.2753E+01
   7.700  0.2227E+01  0.2798E+01
   7.720  0.2256E+01  0.2843E+01
   7.740  0.2286E+01  0.2889E+01
   7.760  0.2317E+01  0.2935E+01
   7.780  0.2348E+01  0.2982E+01
   7.800  0.2378E+01  0.3030E+01
   7.820  0.2406E+01  0.3078E+01
   7.840  0.2431E+01  0.3126E+01
   7.860  0.2453E+01  0.3175E+01
   7.880  0.2471E+01  0.3225E+01
   7.900  0.2485E+01  0.3274E+01
   7.920  0.2496E+01  0.3324E+01
   7.940  0.2503E+01  0.3374E+01
   7.960  0.2507E+01  0.3425E+01
   7.980  0.2510E+01  0.3475E+01
   8.000  0.2511E+01  0.3525E+01
   8.020  0.2514E+01  0.3575E+01
   8.040  0.2518E+01  0.3626E+01
   8.060  0.2527E+01  0.3676E+01
   8.080  0.2540E+01  0.3727E+01
   8.100  0.2560E+01  0.3778E+01
   8.120  0.2589E+01  0.3830E+01
   8.140  0.2627E+01  0.3883E+01
   8.160  0.2675E+01  0.3936E+01
   8.180  0.2734E+01  0.3991E+01
   8.200  0.2803E+01  0.4047E+01
   8.220  0.2883E+01  0.4104E+01
   8.240  0.2973E+01  0.4164E+01
   8.260  0.3070E+01  0.4225E+01
   8.280  0.3173E+01  0.4289E+01
   8.300  0.3280E+01  0.4354E+01
   8.320  0.3388E+01  0.4422E+01
   8.340  0.3494E+01  0.4492E+01
   8.360  0.3594E+01  0.4564E+01
   8.380  0.3685E+01  0.4638E+01
   8.400  0.3764E+01  0.4713E+01
   8.420  0.3828E+01  0.4789E+01
   8.440  0.3875E+01  0.4867E+01
   8.460  0.3901E+01  0.4945E+01
   8.480  0.3906E+01  0.5023E+01
   8.500  0.3890E+01  0.5101E+01
   8.520  0.3852E+01  0.5178E+01
   8.540  0.3794E+01  0.5254E+01
   8.560  0.3717E+01  0.5328E+01
   8.580  0.3624E+01  0.5401E+01
   8.600  0.3519E+01  0.5471E+01
   8.620  0.3405E+01  0.5539E+01
   8.640  0.3285E+01  0.5605E+01
   8.660  0.3165E+01  0.5668E+01
   8.680  0.3046E+01  0.5729E+01
   8.700  0.2934E+01  0.5788E+01
   8.720  0.2830E+01  0.5844E+01
   8.740  0.2738E+01  0.5899E+01
   8.760  0.2659E+01  0.5952E+01
   8.780  0.2594E+01  0.6004E+01
   8.800  0.2543E+01  0.6055E+01
   8.820  0.2507E+01  0.6105E+01
   8.840  0.2485E+01  0.6155E+01
   8.860  0.2476E+01  0.6204E+01
   8.880  0.2479E+01  0.6254E+01
   8.900  0.2493E+01  0.6304E+01
   8.920  0.2515E+01  0.6354E+01
   8.940  0.2545E+01  0.6405E+01
   8.960  0.2582E+01  0.6457E+01
   8.980  0.2623E+01  0.6509E+01
   9.000  0.2668E+01  0.6562E+01
   9.020  0.2715E+01  0.6617E+01
   9.040  0.2763E+01  0.6672E+01
   9.060  0.2811E+01  0.6728E+01
   9.080  0.2858E+01  0.6785E+01
   9.100  0.2902E+01  0.6843E+01
   9.120  0.2944E+01  0.6902E+01
   9.140  0.2981E+01  0.6962E+01
   9.160  0.3013E+01  0.7022E+01
   9.180  0.3040E+01  0.7083E+01
   9.200  0.3060E+01  0.7144E+01
   9.220  0.3073E+01  0.7206E+01
   9.240  0.3078E+01  0.7267E+01
   9.260  0.3077E+01  0.7329E+01
   9.280  0.3068E+01  0.7390E+01
   9.300  0.3052E+01  0.7451E+01
   9.320  0.3029E+01  0.7512E+01
   9.340  0.3000E+01  0.7572E+01
   9.360  0.2966E+01  0.7631E+01
   9.380  0.2927E+01  0.7690E+01
   9.400  0.2884E+01  0.7747E+01
   9.420  0.2837E+01  0.7804E+01
   9.440  0.2789E+01  0.7860E+01
   9.460  0.2739E+01  0.7915E+01
   9.480  0.2689E+01  0.7968E+01
   9.500  0.2640E+01  0.8021E+01
   9.520  0.2593E+01  0.8073E+01
   9.540  0.2550E+01  0.8124E+01
   9.560  0.2512E+01  0.8174E+01
   9.580  0.2481E+01  0.8224E+01
   9.600  0.2458E+01  0.8273E+01
   9.620  0.2444E+01  0.8322E+01
   9.640  0.2441E+01  0.8371E+01
   9.660  0.2451E+01  0.8420E+01
   9.680  0.2473E+01  0.8469E+01
   9.700  0.2510E+01  0.8519E+01
   9.720  0.2560E+01  0.8571E+01
   9.740  0.2624E+01  0.8623E+01
   9.760  0.2701E+01  0.8677E+01
   9.780  0.2788E+01  0.8733E+01
   9.800  0.2885E+01  0.8791E+01
   9.820  0.2987E+01  0.8850E+01
   9.840  0.3094E+01  0.8912E+01
   9.860  0.3200E+01  0.8976E+01
   9.880  0.3303E+01  0.9042E+01
   9.900  0.3399E+01  0.9110E+01
   9.920  0.3483E+01  0.9180E+01
   9.940  0.3553E+01  0.9251E+01
   9.960  0.3604E+01  0.9323E+01
   9.980  0.3634E+01  0.9396E+01
  10.000  0.3641E+01  0.9468E+01
  10.020  0.3622E+01  0.9541E+01
  10.040  0.3577E+01  0.9612E+01
  10.060  0.3504E+01  0.9683E+01
  10.080  0.3406E+01  0.9751E+01
  10.100  0.3282E+01  0.9816E+01
  10.120  0.3134E+01  0.9879E+01
  10.140  0.2967E+01  0.9938E+01
  10.160  0.2782E+01  0.9994E+01
  10.180  0.2584E+01  0.1005E+02
  10.200  0.2376E+01  0.1009E+02
  10.220  0.2164E+01  0.1014E+02
  10.240  0.1951E+01  0.1018E+02
  10.260  0.1742E+01  0.1021E+02
  10.280  0.1540E+01  0.1024E+02
  10.300  0.1349E+01  0.1027E+02
  10.320  0.1173E+01  0.1029E+02
  10.340  0.1012E+01  0.1031E+02
  10.360  0.8697E+00  0.1033E+02
  10.380  0.7458E+00  0.1034E+02
  10.400  0.6408E+00  0.1036E+02
  10.420  0.5542E+00  0.1037E+02
  10.440  0.4848E+00  0.1038E+02
  10.460  0.4310E+00  0.1039E+02
  10.480  0.3909E+00  0.1039E+02
  10.500  0.3624E+00  0.1040E+02
  10.520  0.3430E+00  0.1041E+02
  10.540  0.3306E+00  0.1041E+02
  10.560  0.3230E+00  0.1042E+02
  10.580  0.3182E+00  0.1043E+02
  10.600  0.3146E+00  0.1043E+02
  10.620  0.3108E+00  0.1044E+02
  10.640  0.3057E+00  0.1045E+02
  10.660  0.2989E+00  0.1045E+02
  10.680  0.2898E+00  0.1046E+02
  10.700  0.2784E+00  0.1046E+02
  10.720  0.2648E+00  0.1047E+02
  10.740  0.2495E+00  0.1047E+02
  10.760  0.2327E+00  0.1048E+02
  10.780  0.2150E+00  0.1048E+02
  10.800  0.1969E+00  0.1049E+02
  10.820  0.1788E+00  0.1049E+02
  10.840  0.1611E+00  0.1049E+02
  10.860  0.1443E+00  0.1050E+02
  10.880  0.1285E+00  0.1050E+02
  10.900  0.1139E+00  0.1050E+02
  10.920  0.1007E+00  0.1050E+02
  10.940  0.8892E-01  0.1051E+02
  10.960  0.7865E-01  0.1051E+02
  10.980  0.6991E-01  0.1051E+02
  11.000  0.6275E-01  0.1051E+02
  11.020  0.5725E-01  0.1051E+02
  11.040  0.5350E-01  0.1051E+02
  11.060  0.5166E-01  0.1051E+02
  11.080  0.5189E-01  0.1051E+02
  11.100  0.5438E-01  0.1051E+02
  11.120  0.5933E-01  0.1052E+02
  11.140  0.6694E-01  0.1052E+02
  11.160  0.7734E-01  0.1052E+02
  11.180  0.9062E-01  0.1052E+02
  11.200  0.1068E+00  0.1052E+02
  11.220  0.1257E+00  0.1053E+02
  11.240  0.1471E+00  0.1053E+02
  11.260  0.1708E+00  0.1053E+02
  11.280  0.1960E+00  0.1054E+02
  11.300  0.2224E+00  0.1054E+02
  11.320  0.2491E+00  0.1054E+02
  11.340  0.2755E+00  0.1055E+02
  11.360  0.3007E+00  0.1056E+02
  11.380  0.3240E+00  0.1056E+02
  11.400  0.3447E+00  0.1057E+02
  11.420  0.3622E+00  0.1058E+02
  11.440  0.3761E+00  0.1058E+02
  11.460  0.3861E+00  0.1059E+02
  11.480  0.3920E+00  0.1060E+02
  11.500  0.3940E+00  0.1061E+02
  11.520  0.3922E+00  0.1062E+02
  11.540  0.3870E+00  0.1062E+02
  11.560  0.3788E+00  0.1063E+02
  11.580  0.3683E+00  0.1064E+02
  11.600  0.3559E+00  0.1065E+02
  11.620  0.3424E+00  0.1065E+02
  11.640  0.3282E+00  0.1066E+02
  11.660  0.3139E+00  0.1067E+02
  11.680  0.3000E+00  0.1067E+02
  11.700  0.2866E+00  0.1068E+02
  11.720  0.2741E+00  0.1068E+02
  11.740  0.2627E+00  0.1069E+02
  11.760  0.2523E+00  0.1069E+02
  11.780  0.2429E+00  0.1070E+02
  11.800  0.2345E+00  0.1070E+02
  11.820  0.2269E+00  0.1071E+02
  11.840  0.2199E+00  0.1071E+02
  11.860  0.2133E+00  0.1072E+02
  11.880  0.2069E+00  0.1072E+02
  11.900  0.2006E+00  0.1072E+02
  11.920  0.1941E+00  0.1073E+02
  11.940  0.1873E+00  0.1073E+02
  11.960  0.1800E+00  0.1074E+02
  11.980  0.1723E+00  0.1074E+02
  12.000  0.1641E+00  0.1074E+02
  12.020  0.1554E+00  0.1074E+02
  12.040  0.1463E+00  0.1075E+02
  12.060  0.1370E+00  0.1075E+02
  12.080  0.1276E+00  0.1075E+02
  12.100  0.1183E+00  0.1076E+02
  12.120  0.1096E+00  0.1076E+02
  12.140  0.1016E+00  0.1076E+02
  12.160  0.9480E-01  0.1076E+02
  12.180  0.8948E-01  0.1076E+02
  12.200  0.8601E-01  0.1077E+02
  12.220  0.8473E-01  0.1077E+02
  12.240  0.8595E-01  0.1077E+02
  12.260  0.8992E-01  0.1077E+02
  12.280  0.9683E-01  0.1077E+02
  12.300  0.1068E+00  0.1077E+02
  12.320  0.1199E+00  0.1078E+02
  12.340  0.1359E+00  0.1078E+02
  12.360  0.1549E+00  0.1078E+02
  12.380  0.1764E+00  0.1079E+02
  12.400  0.2001E+00  0.1079E+02
  12.420  0.2255E+00  0.1079E+02
  12.440  0.2521E+00  0.1080E+02
  12.460  0.2792E+00  0.1081E+02
  12.480  0.3062E+00  0.1081E+02
  12.500  0.3325E+00  0.1082E+02
  12.520  0.3572E+00  0.1083E+02
  12.540  0.3798E+00  0.1083E+02
  12.560  0.3997E+00  0.1084E+02
  12.580  0.4165E+00  0.1085E+02
  12.600  0.4296E+00  0.1086E+02
  12.620  0.4390E+00  0.1087E+02
  12.640  0.4445E+00  0.1088E+02
  12.660  0.4461E+00  0.1088E+02
  12.680  0.4440E+00  0.1089E+02
  12.700  0.4385E+00  0.1090E+02
  12.720  0.4299E+00  0.1091E+02
  12.740  0.4188E+00  0.1092E+02
  12.760  0.4057E+00  0.1093E+02
  12.780  0.3910E+00  0.1093E+02
  12.800  0.3753E+00  0.1094E+02
  12.820  0.3592E+00  0.1095E+02
  12.840  0.3429E+00  0.1096E+02
  12.860  0.3270E+00  0.1096E+02
  12.880  0.3117E+00  0.1097E+02
  12.900  0.2971E+00  0.1098E+02
  12.920  0.2834E+00  0.1098E+02
  12.940  0.2707E+00  0.1099E+02
  12.960  0.2589E+00  0.1099E+02
  12.980  0.2481E+00  0.1100E+02
  13.000  0.2381E+00  0.1100E+02
  13.020  0.2290E+00  0.1101E+02
  13.040  0.2207E+00  0.1101E+02
  13.060  0.2131E+00  0.1101E+02
  13.080  0.2063E+00  0.1102E+02
  13.100  0.2002E+00  0.1102E+02
  13.120  0.1948E+00  0.1103E+02
  13.140  0.1901E+00  0.1103E+02
  13.160  0.1861E+00  0.1103E+02
  13.180  0.1829E+00  0.1104E+02
  13.200  0.1803E+00  0.1104E+02
  13.220  0.1782E+00  0.1104E+02
  13.240  0.1767E+00  0.1105E+02
  13.260  0.1756E+00  0.1105E+02
  13.280  0.1748E+00  0.1106E+02
  13.300  0.1741E+00  0.1106E+02
  13.320  0.1736E+00  0.1106E+02
  13.340  0.1732E+00  0.1107E+02
  13.360  0.1728E+00  0.1107E+02
  13.380  0.1725E+00  0.1107E+02
  13.400  0.1723E+00  0.1108E+02
  13.420  0.1724E+00  0.1108E+02
  13.440  0.1728E+00  0.1108E+02
  13.460  0.1737E+00  0.1109E+02
  13.480  0.1754E+00  0.1109E+02
  13.500  0.1780E+00  0.1109E+02
  13.520  0.1816E+00  0.1110E+02
  13.540  0.1865E+00  0.1110E+02
  13.560  0.1928E+00  0.1110E+02
  13.580  0.2006E+00  0.1111E+02
  13.600  0.2098E+00  0.1111E+02
  13.620  0.2204E+00  0.1112E+02
  13.640  0.2322E+00  0.1112E+02
  13.660  0.2451E+00  0.1113E+02
  13.680  0.2589E+00  0.1113E+02
  13.700  0.2731E+00  0.1114E+02
  13.720  0.2874E+00  0.1114E+02
  13.740  0.3015E+00  0.1115E+02
  13.760  0.3150E+00  0.1116E+02
  13.780  0.3274E+00  0.1116E+02
  13.800  0.3385E+00  0.1117E+02
  13.820  0.3480E+00  0.1118E+02
  13.840  0.3557E+00  0.1118E+02
  13.860  0.3613E+00  0.1119E+02
  13.880  0.3650E+00  0.1120E+02
  13.900  0.3668E+00  0.1120E+02
  13.920  0.3666E+00  0.1121E+02
  13.940  0.3649E+00  0.1122E+02
  13.960  0.3617E+00  0.1123E+02
  13.980  0.3574E+00  0.1123E+02
  14.000  0.3523E+00  0.1124E+02
  14.020  0.3468E+00  0.1125E+02
  14.040  0.3410E+00  0.1125E+02
  14.060  0.3353E+00  0.1126E+02
  14.080  0.3298E+00  0.1127E+02
  14.100  0.3247E+00  0.1127E+02
  14.120  0.3201E+00  0.1128E+02
  14.140  0.3160E+00  0.1129E+02
  14.160  0.3123E+00  0.1129E+02
  14.180  0.3089E+00  0.1130E+02
  14.200  0.3056E+00  0.1131E+02
  14.220  0.3024E+00  0.1131E+02
  14.240  0.2990E+00  0.1132E+02
  14.260  0.2952E+00  0.1132E+02
  14.280  0.2909E+00  0.1133E+02
  14.300  0.2859E+00  0.1134E+02
  14.320  0.2802E+00  0.1134E+02
  14.340  0.2737E+00  0.1135E+02
  14.360  0.2665E+00  0.1135E+02
  14.380  0.2587E+00  0.1136E+02
  14.400  0.2503E+00  0.1136E+02
  14.420  0.2417E+00  0.1137E+02
  14.440  0.2329E+00  0.1137E+02
  14.460  0.2242E+00  0.1138E+02
  14.480  0.2159E+00  0.1138E+02
  14.500  0.2081E+00  0.1138E+02
  14.520  0.2012E+00  0.1139E+02
  14.540  0.1952E+00  0.1139E+02
  14.560  0.1903E+00  0.1140E+02
  14.580  0.1865E+00  0.1140E+02
  14.600  0.1839E+00  0.1140E+02
  14.620  0.1823E+00  0.1141E+02
  14.640  0.1816E+00  0.1141E+02
  14.660  0.1816E+00  0.1141E+02
  14.680  0.1820E+00  0.1142E+02
  14.700  0.1826E+00  0.1142E+02
  14.720  0.1830E+00  0.1143E+02
  14.740  0.1830E+00  0.1143E+02
  14.760  0.1824E+00  0.1143E+02
  14.780  0.1810E+00  0.1144E+02
  14.800  0.1787E+00  0.1144E+02
  14.820  0.1756E+00  0.1144E+02
  14.840  0.1717E+00  0.1145E+02
  14.860  0.1674E+00  0.1145E+02
  14.880  0.1630E+00  0.1145E+02
  14.900  0.1589E+00  0.1146E+02
  14.920  0.1557E+00  0.1146E+02
  14.940  0.1539E+00  0.1146E+02
  14.960  0.1539E+00  0.1147E+02
  14.980  0.1563E+00  0.1147E+02
  15.000  0.1615E+00  0.1147E+02
  15.020  0.1698E+00  0.1148E+02
  15.040  0.1814E+00  0.1148E+02
  15.060  0.1962E+00  0.1148E+02
  15.080  0.2141E+00  0.1149E+02
  15.100  0.2348E+00  0.1149E+02
  15.120  0.2577E+00  0.1150E+02
  15.140  0.2822E+00  0.1150E+02
  15.160  0.3075E+00  0.1151E+02
  15.180  0.3327E+00  0.1152E+02
  15.200  0.3570E+00  0.1152E+02
  15.220  0.3794E+00  0.1153E+02
  15.240  0.3990E+00  0.1154E+02
  15.260  0.4151E+00  0.1155E+02
  15.280  0.4271E+00  0.1156E+02
  15.300  0.4344E+00  0.1156E+02
  15.320  0.4369E+00  0.1157E+02
  15.340  0.4344E+00  0.1158E+02
  15.360  0.4273E+00  0.1159E+02
  15.380  0.4157E+00  0.1160E+02
  15.400  0.4002E+00  0.1161E+02
  15.420  0.3815E+00  0.1161E+02
  15.440  0.3603E+00  0.1162E+02
  15.460  0.3374E+00  0.1163E+02
  15.480  0.3135E+00  0.1163E+02
  15.500  0.2895E+00  0.1164E+02
  15.520  0.2659E+00  0.1165E+02
  15.540  0.2433E+00  0.1165E+02
  15.560  0.2221E+00  0.1165E+02
  15.580  0.2028E+00  0.1166E+02
  15.600  0.1854E+00  0.1166E+02
  15.620  0.1702E+00  0.1167E+02
  15.640  0.1573E+00  0.1167E+02
  15.660  0.1465E+00  0.1167E+02
  15.680  0.1378E+00  0.1167E+02
  15.700  0.1312E+00  0.1168E+02
  15.720  0.1266E+00  0.1168E+02
  15.740  0.1239E+00  0.1168E+02
  15.760  0.1229E+00  0.1168E+02
  15.780  0.1236E+00  0.1169E+02
  15.800  0.1259E+00  0.1169E+02
  15.820  0.1295E+00  0.1169E+02
  15.840  0.1343E+00  0.1169E+02
  15.860  0.1401E+00  0.1170E+02
  15.880  0.1466E+00  0.1170E+02
  15.900  0.1536E+00  0.1170E+02
  15.920  0.1608E+00  0.1171E+02
  15.940  0.1679E+00  0.1171E+02
  15.960  0.1746E+00  0.1171E+02
  15.980  0.1805E+00  0.1172E+02
  16.000  0.1854E+00  0.1172E+02
  16.020  0.1891E+00  0.1172E+02
  16.040  0.1915E+00  0.1173E+02
  16.060  0.1924E+00  0.1173E+02
  16.080  0.1918E+00  0.1174E+02
  16.100  0.1899E+00  0.1174E+02
  16.120  0.1868E+00  0.1174E+02
  16.140  0.1827E+00  0.1175E+02
  16.160  0.1779E+00  0.1175E+02
  16.180  0.1728E+00  0.1175E+02
  16.200  0.1678E+00  0.1176E+02
  16.220  0.1631E+00  0.1176E+02
  16.240  0.1593E+00  0.1176E+02
  16.260  0.1566E+00  0.1177E+02
  16.280  0.1551E+00  0.1177E+02
  16.300  0.1551E+00  0.1177E+02
  16.320  0.1565E+00  0.1178E+02
  16.340  0.1595E+00  0.1178E+02
  16.360  0.1637E+00  0.1178E+02
  16.380  0.1689E+00  0.1179E+02
  16.400  0.1750E+00  0.1179E+02
  16.420  0.1815E+00  0.1179E+02
  16.440  0.1882E+00  0.1180E+02
  16.460  0.1947E+00  0.1180E+02
  16.480  0.2007E+00  0.1181E+02
  16.500  0.2061E+00  0.1181E+02
  16.520  0.2107E+00  0.1181E+02
  16.540  0.2144E+00  0.1182E+02
  16.560  0.2173E+00  0.1182E+02
  16.580  0.2195E+00  0.1183E+02
  16.600  0.2211E+00  0.1183E+02
  16.620  0.2223E+00  0.1184E+02
  16.640  0.2235E+00  0.1184E+02
  16.660  0.2248E+00  0.1184E+02
  16.680  0.2266E+00  0.1185E+02
  16.700  0.2290E+00  0.1185E+02
  16.720  0.2324E+00  0.1186E+02
  16.740  0.2367E+00  0.1186E+02
  16.760  0.2422E+00  0.1187E+02
  16.780  0.2489E+00  0.1187E+02
  16.800  0.2566E+00  0.1188E+02
  16.820  0.2654E+00  0.1188E+02
  16.840  0.2749E+00  0.1189E+02
  16.860  0.2850E+00  0.1189E+02
  16.880  0.2953E+00  0.1190E+02
  16.900  0.3056E+00  0.1191E+02
  16.920  0.3153E+00  0.1191E+02
  16.940  0.3242E+00  0.1192E+02
  16.960  0.3319E+00  0.1193E+02
  16.980  0.3381E+00  0.1193E+02
  17.000  0.3427E+00  0.1194E+02
  17.020  0.3454E+00  0.1195E+02
  17.040  0.3462E+00  0.1195E+02
  17.060  0.3453E+00  0.1196E+02
  17.080  0.3428E+00  0.1197E+02
  17.100  0.3391E+00  0.1197E+02
  17.120  0.3346E+00  0.1198E+02
  17.140  0.3298E+00  0.1199E+02
  17.160  0.3252E+00  0.1199E+02
  17.180  0.3213E+00  0.1200E+02
  17.200  0.3185E+00  0.1201E+02
  17.220  0.3172E+00  0.1201E+02
  17.240  0.3176E+00  0.1202E+02
  17.260  0.3199E+00  0.1203E+02
  17.280  0.3238E+00  0.1203E+02
  17.300  0.3292E+00  0.1204E+02
  17.320  0.3358E+00  0.1205E+02
  17.340  0.3430E+00  0.1205E+02
  17.360  0.3503E+00  0.1206E+02
  17.380  0.3573E+00  0.1207E+02
  17.400  0.3633E+00  0.1207E+02
  17.420  0.3680E+00  0.1208E+02
  17.440  0.3711E+00  0.1209E+02
  17.460  0.3725E+00  0.1210E+02
  17.480  0.3722E+00  0.1210E+02
  17.500  0.3703E+00  0.1211E+02
  17.520  0.3673E+00  0.1212E+02
  17.540  0.3634E+00  0.1213E+02
  17.560  0.3592E+00  0.1213E+02
  17.580  0.3552E+00  0.1214E+02
  17.600  0.3518E+00  0.1215E+02
  17.620  0.3492E+00  0.1215E+02
  17.640  0.3477E+00  0.1216E+02
  17.660  0.3473E+00  0.1217E+02
  17.680  0.3479E+00  0.1217E+02
  17.700  0.3491E+00  0.1218E+02
  17.720  0.3506E+00  0.1219E+02
  17.740  0.3518E+00  0.1220E+02
  17.760  0.3521E+00  0.1220E+02
  17.780  0.3511E+00  0.1221E+02
  17.800  0.3482E+00  0.1222E+02
  17.820  0.3431E+00  0.1222E+02
  17.840  0.3357E+00  0.1223E+02
  17.860  0.3259E+00  0.1224E+02
  17.880  0.3139E+00  0.1224E+02
  17.900  0.3001E+00  0.1225E+02
  17.920  0.2850E+00  0.1225E+02
  17.940  0.2693E+00  0.1226E+02
  17.960  0.2536E+00  0.1227E+02
  17.980  0.2388E+00  0.1227E+02
  18.000  0.2256E+00  0.1227E+02
  18.020  0.2146E+00  0.1228E+02
  18.040  0.2063E+00  0.1228E+02
  18.060  0.2013E+00  0.1229E+02
  18.080  0.1997E+00  0.1229E+02
  18.100  0.2015E+00  0.1229E+02
  18.120  0.2067E+00  0.1230E+02
  18.140  0.2149E+00  0.1230E+02
  18.160  0.2258E+00  0.1231E+02
  18.180  0.2388E+00  0.1231E+02
  18.200  0.2533E+00  0.1232E+02
  18.220  0.2687E+00  0.1232E+02
  18.240  0.2843E+00  0.1233E+02
  18.260  0.2994E+00  0.1233E+02
  18.280  0.3136E+00  0.1234E+02
  18.300  0.3264E+00  0.1235E+02
  18.320  0.3373E+00  0.1235E+02
  18.340  0.3462E+00  0.1236E+02
  18.360  0.3529E+00  0.1237E+02
  18.380  0.3572E+00  0.1238E+02
  18.400  0.3593E+00  0.1238E+02
  18.420  0.3593E+00  0.1239E+02
  18.440  0.3573E+00  0.1240E+02
  18.460  0.3534E+00  0.1240E+02
  18.480  0.3479E+00  0.1241E+02
  18.500  0.3410E+00  0.1242E+02
  18.520  0.3327E+00  0.1242E+02
  18.540  0.3234E+00  0.1243E+02
  18.560  0.3131E+00  0.1244E+02
  18.580  0.3020E+00  0.1244E+02
  18.600  0.2903E+00  0.1245E+02
  18.620  0.2782E+00  0.1245E+02
  18.640  0.2658E+00  0.1246E+02
  18.660  0.2535E+00  0.1246E+02
  18.680  0.2416E+00  0.1247E+02
  18.700  0.2304E+00  0.1247E+02
  18.720  0.2203E+00  0.1248E+02
  18.740  0.2117E+00  0.1248E+02
  18.760  0.2049E+00  0.1249E+02
  18.780  0.2004E+00  0.1249E+02
  18.800  0.1984E+00  0.1250E+02
  18.820  0.1992E+00  0.1250E+02
  18.840  0.2028E+00  0.1250E+02
  18.860  0.2092E+00  0.1251E+02
  18.880  0.2184E+00  0.1251E+02
  18.900  0.2301E+00  0.1252E+02
  18.920  0.2440E+00  0.1252E+02
  18.940  0.2597E+00  0.1253E+02
  18.960  0.2765E+00  0.1253E+02
  18.980  0.2939E+00  0.1254E+02
  19.000  0.3114E+00  0.1254E+02
  19.020  0.3282E+00  0.1255E+02
  19.040  0.3438E+00  0.1256E+02
  19.060  0.3576E+00  0.1256E+02
  19.080  0.3691E+00  0.1257E+02
  19.100  0.3779E+00  0.1258E+02
  19.120  0.3837E+00  0.1259E+02
  19.140  0.3863E+00  0.1259E+02
  19.160  0.3856E+00  0.1260E+02
  19.180  0.3816E+00  0.1261E+02
  19.200  0.3747E+00  0.1262E+02
  19.220  0.3649E+00  0.1263E+02
  19.240  0.3529E+00  0.1263E+02
  19.260  0.3389E+00  0.1264E+02
  19.280  0.3237E+00  0.1265E+02
  19.300  0.3077E+00  0.1265E+02
  19.320  0.2917E+00  0.1266E+02
  19.340  0.2760E+00  0.1266E+02
  19.360  0.2614E+00  0.1267E+02
  19.380  0.2482E+00  0.1267E+02
  19.400  0.2369E+00  0.1268E+02
  19.420  0.2277E+00  0.1268E+02
  19.440  0.2208E+00  0.1269E+02
  19.460  0.2164E+00  0.1269E+02
  19.480  0.2143E+00  0.1270E+02
  19.500  0.2145E+00  0.1270E+02
  19.520  0.2168E+00  0.1270E+02
  19.540  0.2210E+00  0.1271E+02
  19.560  0.2267E+00  0.1271E+02
  19.580  0.2336E+00  0.1272E+02
  19.600  0.2413E+00  0.1272E+02
  19.620  0.2495E+00  0.1273E+02
  19.640  0.2578E+00  0.1273E+02
  19.660  0.2658E+00  0.1274E+02
  19.680  0.2732E+00  0.1274E+02
  19.700  0.2797E+00  0.1275E+02
  19.720  0.2851E+00  0.1275E+02
  19.740  0.2890E+00  0.1276E+02
  19.760  0.2913E+00  0.1277E+02
  19.780  0.2919E+00  0.1277E+02
  19.800  0.2908E+00  0.1278E+02
  19.820  0.2880E+00  0.1278E+02
  19.840  0.2838E+00  0.1279E+02
  19.860  0.2783E+00  0.1279E+02
  19.880  0.2719E+00  0.1280E+02
  19.900  0.2651E+00  0.1281E+02
  19.920  0.2584E+00  0.1281E+02
  19.940  0.2524E+00  0.1282E+02
  19.960  0.2476E+00  0.1282E+02
  19.980  0.2448E+00  0.1283E+02
  20.000  0.2445E+00  0.1283E+02
  20.020  0.2472E+00  0.1284E+02
  20.040  0.2532E+00  0.1284E+02
  20.060  0.2628E+00  0.1285E+02
  20.080  0.2761E+00  0.1285E+02
  20.100  0.2929E+00  0.1286E+02
  20.120  0.3130E+00  0.1286E+02
  20.140  0.3359E+00  0.1287E+02
  20.160  0.3609E+00  0.1288E+02
  20.180  0.3871E+00  0.1289E+02
  20.200  0.4138E+00  0.1289E+02
  20.220  0.4399E+00  0.1290E+02
  20.240  0.4645E+00  0.1291E+02
  20.260  0.4868E+00  0.1292E+02
  20.280  0.5057E+00  0.1293E+02
  20.300  0.5208E+00  0.1294E+02
  20.320  0.5315E+00  0.1295E+02
  20.340  0.5374E+00  0.1296E+02
  20.360  0.5386E+00  0.1297E+02
  20.380  0.5350E+00  0.1298E+02
  20.400  0.5272E+00  0.1300E+02
  20.420  0.5155E+00  0.1301E+02
  20.440  0.5006E+00  0.1302E+02
  20.460  0.4833E+00  0.1303E+02
  20.480  0.4646E+00  0.1303E+02
  20.500  0.4452E+00  0.1304E+02
  20.520  0.4261E+00  0.1305E+02
  20.540  0.4081E+00  0.1306E+02
  20.560  0.3919E+00  0.1307E+02
  20.580  0.3783E+00  0.1308E+02
  20.600  0.3677E+00  0.1308E+02
  20.620  0.3605E+00  0.1309E+02
  20.640  0.3568E+00  0.1310E+02
  20.660  0.3568E+00  0.1310E+02
  20.680  0.3603E+00  0.1311E+02
  20.700  0.3670E+00  0.1312E+02
  20.720  0.3765E+00  0.1313E+02
  20.740  0.3885E+00  0.1313E+02
  20.760  0.4022E+00  0.1314E+02
  20.780  0.4171E+00  0.1315E+02
  20.800  0.4325E+00  0.1316E+02
  20.820  0.4479E+00  0.1317E+02
  20.840  0.4627E+00  0.1318E+02
  20.860  0.4763E+00  0.1319E+02
  20.880  0.4885E+00  0.1320E+02
  20.900  0.4988E+00  0.1321E+02
  20.920  0.5070E+00  0.1322E+02
  20.940  0.5132E+00  0.1323E+02
  20.960  0.5171E+00  0.1324E+02
  20.980  0.5190E+00  0.1325E+02
  21.000  0.5189E+00  0.1326E+02
  21.020  0.5169E+00  0.1327E+02
  21.040  0.5132E+00  0.1328E+02
  21.060  0.5081E+00  0.1329E+02
  21.080  0.5015E+00  0.1330E+02
  21.100  0.4937E+00  0.1331E+02
  21.120  0.4847E+00  0.1332E+02
  21.140  0.4747E+00  0.1333E+02
  21.160  0.4637E+00  0.1334E+02
  21.180  0.4519E+00  0.1335E+02
  21.200  0.4392E+00  0.1336E+02
  21.220  0.4259E+00  0.1336E+02
  21.240  0.4121E+00  0.1337E+02
  21.260  0.3979E+00  0.1338E+02
  21.280  0.3836E+00  0.1339E+02
  21.300  0.3694E+00  0.1339E+02
  21.320  0.3556E+00  0.1340E+02
  21.340  0.3425E+00  0.1341E+02
  21.360  0.3304E+00  0.1342E+02
  21.380  0.3196E+00  0.1342E+02
  21.400  0.3103E+00  0.1343E+02
  21.420  0.3029E+00  0.1343E+02
  21.440  0.2974E+00  0.1344E+02
  21.460  0.2940E+00  0.1345E+02
  21.480  0.2928E+00  0.1345E+02
  21.500  0.2936E+00  0.1346E+02
  21.520  0.2965E+00  0.1346E+02
  21.540  0.3012E+00  0.1347E+02
  21.560  0.3074E+00  0.1348E+02
  21.580  0.3149E+00  0.1348E+02
  21.600  0.3234E+00  0.1349E+02
  21.620  0.3325E+00  0.1350E+02
  21.640  0.3420E+00  0.1350E+02
  21.660  0.3515E+00  0.1351E+02
  21.680  0.3610E+00  0.1352E+02
  21.700  0.3703E+00  0.1352E+02
  21.720  0.3794E+00  0.1353E+02
  21.740  0.3884E+00  0.1354E+02
  21.760  0.3974E+00  0.1355E+02
  21.780  0.4067E+00  0.1356E+02
  21.800  0.4164E+00  0.1356E+02
  21.820  0.4268E+00  0.1357E+02
  21.840  0.4382E+00  0.1358E+02
  21.860  0.4506E+00  0.1359E+02
  21.880  0.4640E+00  0.1360E+02
  21.900  0.4784E+00  0.1361E+02
  21.920  0.4936E+00  0.1362E+02
  21.940  0.5091E+00  0.1363E+02
  21.960  0.5246E+00  0.1364E+02
  21.980  0.5395E+00  0.1365E+02
  22.000  0.5531E+00  0.1366E+02
  22.020  0.5648E+00  0.1367E+02
  22.040  0.5739E+00  0.1368E+02
  22.060  0.5800E+00  0.1370E+02
  22.080  0.5824E+00  0.1371E+02
  22.100  0.5810E+00  0.1372E+02
  22.120  0.5754E+00  0.1373E+02
  22.140  0.5658E+00  0.1374E+02
  22.160  0.5523E+00  0.1375E+02
  22.180  0.5353E+00  0.1376E+02
  22.200  0.5153E+00  0.1377E+02
  22.220  0.4928E+00  0.1378E+02
  22.240  0.4687E+00  0.1379E+02
  22.260  0.4437E+00  0.1380E+02
  22.280  0.4187E+00  0.1381E+02
  22.300  0.3944E+00  0.1382E+02
  22.320  0.3717E+00  0.1383E+02
  22.340  0.3513E+00  0.1383E+02
  22.360  0.3339E+00  0.1384E+02
  22.380  0.3202E+00  0.1385E+02
  22.400  0.3106E+00  0.1385E+02
  22.420  0.3056E+00  0.1386E+02
  22.440  0.3054E+00  0.1386E+02
  22.460  0.3102E+00  0.1387E+02
  22.480  0.3199E+00  0.1388E+02
  22.500  0.3343E+00  0.1388E+02
  22.520  0.3530E+00  0.1389E+02
  22.540  0.3756E+00  0.1390E+02
  22.560  0.4012E+00  0.1391E+02
  22.580  0.4289E+00  0.1391E+02
  22.600  0.4578E+00  0.1392E+02
  22.620  0.4869E+00  0.1393E+02
  22.640  0.5149E+00  0.1394E+02
  22.660  0.5408E+00  0.1395E+02
  22.680  0.5636E+00  0.1397E+02
  22.700  0.5825E+00  0.1398E+02
  22.720  0.5968E+00  0.1399E+02
  22.740  0.6061E+00  0.1400E+02
  22.760  0.6102E+00  0.1401E+02
  22.780  0.6093E+00  0.1403E+02
  22.800  0.6035E+00  0.1404E+02
  22.820  0.5936E+00  0.1405E+02
  22.840  0.5803E+00  0.1406E+02
  22.860  0.5644E+00  0.1407E+02
  22.880  0.5469E+00  0.1408E+02
  22.900  0.5286E+00  0.1409E+02
  22.920  0.5104E+00  0.1410E+02
  22.940  0.4931E+00  0.1411E+02
  22.960  0.4771E+00  0.1412E+02
  22.980  0.4628E+00  0.1413E+02
  23.000  0.4503E+00  0.1414E+02
  23.020  0.4396E+00  0.1415E+02
  23.040  0.4305E+00  0.1416E+02
  23.060  0.4225E+00  0.1417E+02
  23.080  0.4154E+00  0.1418E+02
  23.100  0.4087E+00  0.1418E+02
  23.120  0.4018E+00  0.1419E+02
  23.140  0.3944E+00  0.1420E+02
  23.160  0.3863E+00  0.1421E+02
  23.180  0.3772E+00  0.1422E+02
  23.200  0.3673E+00  0.1422E+02
  23.220  0.3566E+00  0.1423E+02
  23.240  0.3454E+00  0.1424E+02
  23.260  0.3342E+00  0.1424E+02
  23.280  0.3235E+00  0.1425E+02
  23.300  0.3139E+00  0.1426E+02
  23.320  0.3061E+00  0.1426E+02
  23.340  0.3008E+00  0.1427E+02
  23.360  0.2984E+00  0.1427E+02
  23.380  0.2996E+00  0.1428E+02
  23.400  0.3047E+00  0.1429E+02
  23.420  0.3141E+00  0.1429E+02
  23.440  0.3279E+00  0.1430E+02
  23.460  0.3460E+00  0.1431E+02
  23.480  0.3683E+00  0.1431E+02
  23.500  0.3943E+00  0.1432E+02
  23.520  0.4234E+00  0.1433E+02
  23.540  0.4550E+00  0.1434E+02
  23.560  0.4881E+00  0.1435E+02
  23.580  0.5220E+00  0.1436E+02
  23.600  0.5556E+00  0.1437E+02
  23.620  0.5879E+00  0.1438E+02
  23.640  0.6181E+00  0.1439E+02
  23.660  0.6453E+00  0.1441E+02
  23.680  0.6688E+00  0.1442E+02
  23.700  0.6881E+00  0.1443E+02
  23.720  0.7028E+00  0.1445E+02
  23.740  0.7128E+00  0.1446E+02
  23.760  0.7179E+00  0.1448E+02
  23.780  0.7185E+00  0.1449E+02
  23.800  0.7149E+00  0.1451E+02
  23.820  0.7075E+00  0.1452E+02
  23.840  0.6969E+00  0.1453E+02
  23.860  0.6838E+00  0.1455E+02
  23.880  0.6687E+00  0.1456E+02
  23.900  0.6523E+00  0.1457E+02
  23.920  0.6352E+00  0.1459E+02
  23.940  0.6177E+00  0.1460E+02
  23.960  0.6004E+00  0.1461E+02
  23.980  0.5835E+00  0.1462E+02
  24.000  0.5673E+00  0.1463E+02
  24.020  0.5520E+00  0.1465E+02
  24.040  0.5376E+00  0.1466E+02
  24.060  0.5244E+00  0.1467E+02
  24.080  0.5123E+00  0.1468E+02
  24.100  0.5015E+00  0.1469E+02
  24.120  0.4921E+00  0.1470E+02
  24.140  0.4841E+00  0.1471E+02
  24.160  0.4778E+00  0.1472E+02
  24.180  0.4732E+00  0.1473E+02
  24.200  0.4703E+00  0.1473E+02
  24.220  0.4692E+00  0.1474E+02
  24.240  0.4698E+00  0.1475E+02
  24.260  0.4720E+00  0.1476E+02
  24.280  0.4756E+00  0.1477E+02
  24.300  0.4803E+00  0.1478E+02
  24.320  0.4858E+00  0.1479E+02
  24.340  0.4917E+00  0.1480E+02
  24.360  0.4975E+00  0.1481E+02
  24.380  0.5028E+00  0.1482E+02
  24.400  0.5074E+00  0.1483E+02
  24.420  0.5108E+00  0.1484E+02
  24.440  0.5130E+00  0.1485E+02
  24.460  0.5136E+00  0.1486E+02
  24.480  0.5129E+00  0.1487E+02
  24.500  0.5108E+00  0.1488E+02
  24.520  0.5075E+00  0.1489E+02
  24.540  0.5032E+00  0.1490E+02
  24.560  0.4982E+00  0.1491E+02
  24.580  0.4928E+00  0.1492E+02
  24.600  0.4872E+00  0.1493E+02
  24.620  0.4816E+00  0.1494E+02
  24.640  0.4764E+00  0.1495E+02
  24.660  0.4716E+00  0.1496E+02
  24.680  0.4673E+00  0.1497E+02
  24.700  0.4638E+00  0.1498E+02
  24.720  0.4610E+00  0.1499E+02
  24.740  0.4590E+00  0.1500E+02
  24.760  0.4580E+00  0.1501E+02
  24.780  0.4578E+00  0.1502E+02
  24.800  0.4587E+00  0.1503E+02
  24.820  0.4606E+00  0.1504E+02
  24.840  0.4636E+00  0.1504E+02
  24.860  0.4677E+00  0.1505E+02
  24.880  0.4730E+00  0.1506E+02
  24.900  0.4795E+00  0.1507E+02
  24.920  0.4872E+00  0.1508E+02
  24.940  0.4960E+00  0.1509E+02
  24.960  0.5059E+00  0.1510E+02
  24.980  0.5167E+00  0.1511E+02
  25.000  0.5284E+00  0.1512E+02
