#  E (eV)   dos(E)     Int dos(E) EFermi =   12.977 eV
  -5.000 -0.4119E-81 -0.8239E-83
  -4.980 -0.4113E-81 -0.1646E-82
  -4.960 -0.4106E-81 -0.2468E-82
  -4.940 -0.4100E-81 -0.3288E-82
  -4.920 -0.4093E-81 -0.4106E-82
  -4.900 -0.4087E-81 -0.4924E-82
  -4.880 -0.4080E-81 -0.5740E-82
  -4.860 -0.4074E-81 -0.6554E-82
  -4.840 -0.4067E-81 -0.7368E-82
  -4.820 -0.4061E-81 -0.8180E-82
  -4.800 -0.4054E-81 -0.8991E-82
  -4.780 -0.4048E-81 -0.9800E-82
  -4.760 -0.4041E-81 -0.1061E-81
  -4.740 -0.4035E-81 -0.1142E-81
  -4.720 -0.4028E-81 -0.1222E-81
  -4.700 -0.4022E-81 -0.1303E-81
  -4.680 -0.4015E-81 -0.1383E-81
  -4.660 -0.4009E-81 -0.1463E-81
  -4.640 -0.4002E-81 -0.1543E-81
  -4.620 -0.3996E-81 -0.1623E-81
  -4.600 -0.3989E-81 -0.1703E-81
  -4.580 -0.3983E-81 -0.1782E-81
  -4.560 -0.3976E-81 -0.1862E-81
  -4.540 -0.3970E-81 -0.1941E-81
  -4.520 -0.3964E-81 -0.2021E-81
  -4.500 -0.3957E-81 -0.2100E-81
  -4.480 -0.3951E-81 -0.2179E-81
  -4.460 -0.3944E-81 -0.2258E-81
  -4.440 -0.3938E-81 -0.2336E-81
  -4.420 -0.3932E-81 -0.2415E-81
  -4.400 -0.3925E-81 -0.2494E-81
  -4.380 -0.3919E-81 -0.2572E-81
  -4.360 -0.3913E-81 -0.2650E-81
  -4.340 -0.3906E-81 -0.2728E-81
  -4.320 -0.3900E-81 -0.2806E-81
  -4.300 -0.3893E-81 -0.2884E-81
  -4.280 -0.3887E-81 -0.2962E-81
  -4.260 -0.3881E-81 -0.3040E-81
  -4.240 -0.3874E-81 -0.3117E-81
  -4.220 -0.3868E-81 -0.3194E-81
  -4.200 -0.3862E-81 -0.3272E-81
  -4.180 -0.3856E-81 -0.3349E-81
  -4.160 -0.3849E-81 -0.3426E-81
  -4.140 -0.3843E-81 -0.3503E-81
  -4.120 -0.3837E-81 -0.3579E-81
  -4.100 -0.3830E-81 -0.3656E-81
  -4.080 -0.3824E-81 -0.3732E-81
  -4.060 -0.3818E-81 -0.3809E-81
  -4.040 -0.3812E-81 -0.3885E-81
  -4.020 -0.3805E-81 -0.3961E-81
  -4.000 -0.3799E-81 -0.4037E-81
  -3.980 -0.3793E-81 -0.4113E-81
  -3.960 -0.3787E-81 -0.4189E-81
  -3.940 -0.3780E-81 -0.4264E-81
  -3.920 -0.3774E-81 -0.4340E-81
  -3.900 -0.3768E-81 -0.4415E-81
  -3.880 -0.3762E-81 -0.4490E-81
  -3.860 -0.3755E-81 -0.4565E-81
  -3.840 -0.3749E-81 -0.4640E-81
  -3.820 -0.3743E-81 -0.4715E-81
  -3.800 -0.3737E-81 -0.4790E-81
  -3.780 -0.3731E-81 -0.4865E-81
  -3.760 -0.3724E-81 -0.4939E-81
  -3.740 -0.3718E-81 -0.5013E-81
  -3.720 -0.3712E-81 -0.5088E-81
  -3.700 -0.3706E-81 -0.5162E-81
  -3.680 -0.3700E-81 -0.5236E-81
  -3.660 -0.3694E-81 -0.5310E-81
  -3.640 -0.3688E-81 -0.5383E-81
  -3.620 -0.3681E-81 -0.5457E-81
  -3.600 -0.3675E-81 -0.5531E-81
  -3.580 -0.3669E-81 -0.5604E-81
  -3.560 -0.3663E-81 -0.5677E-81
  -3.540 -0.3657E-81 -0.5750E-81
  -3.520 -0.3651E-81 -0.5823E-81
  -3.500 -0.3645E-81 -0.5896E-81
  -3.480 -0.3639E-81 -0.5969E-81
  -3.460 -0.3633E-81 -0.6042E-81
  -3.440 -0.3626E-81 -0.6114E-81
  -3.420 -0.3620E-81 -0.6187E-81
  -3.400 -0.3614E-81 -0.6259E-81
  -3.380 -0.3608E-81 -0.6331E-81
  -3.360 -0.3602E-81 -0.6403E-81
  -3.340 -0.3596E-81 -0.6475E-81
  -3.320 -0.3590E-81 -0.6547E-81
  -3.300 -0.3584E-81 -0.6619E-81
  -3.280 -0.3578E-81 -0.6690E-81
  -3.260 -0.3572E-81 -0.6762E-81
  -3.240 -0.3566E-81 -0.6833E-81
  -3.220 -0.3560E-81 -0.6904E-81
  -3.200 -0.3554E-81 -0.6975E-81
  -3.180 -0.3548E-81 -0.7046E-81
  -3.160 -0.3542E-81 -0.7117E-81
  -3.140 -0.3536E-81 -0.7188E-81
  -3.120 -0.3530E-81 -0.7258E-81
  -3.100 -0.3524E-81 -0.7329E-81
  -3.080 -0.3518E-81 -0.7399E-81
  -3.060 -0.3512E-81 -0.7469E-81
  -3.040 -0.3506E-81 -0.7539E-81
  -3.020 -0.3500E-81 -0.7609E-81
  -3.000 -0.3494E-81 -0.7679E-81
  -2.980 -0.3488E-81 -0.7749E-81
  -2.960 -0.3482E-81 -0.7819E-81
  -2.940 -0.3476E-81 -0.7888E-81
  -2.920 -0.3471E-81 -0.7958E-81
  -2.900 -0.3465E-81 -0.8027E-81
  -2.880 -0.3459E-81 -0.8096E-81
  -2.860 -0.3453E-81 -0.8165E-81
  -2.840 -0.3447E-81 -0.8234E-81
  -2.820 -0.3441E-81 -0.8303E-81
  -2.800 -0.3435E-81 -0.8372E-81
  -2.780 -0.3429E-81 -0.8440E-81
  -2.760 -0.3423E-81 -0.8509E-81
  -2.740 -0.3418E-81 -0.8577E-81
  -2.720 -0.3412E-81 -0.8645E-81
  -2.700 -0.3406E-81 -0.8713E-81
  -2.680 -0.3400E-81 -0.8781E-81
  -2.660 -0.3394E-81 -0.8849E-81
  -2.640 -0.3388E-81 -0.8917E-81
  -2.620 -0.3382E-81 -0.8985E-81
  -2.600 -0.3377E-81 -0.9052E-81
  -2.580 -0.3371E-81 -0.9120E-81
  -2.560 -0.3365E-81 -0.9187E-81
  -2.540 -0.3359E-81 -0.9254E-81
  -2.520 -0.3353E-81 -0.9321E-81
  -2.500 -0.3348E-81 -0.9388E-81
  -2.480 -0.3342E-81 -0.9455E-81
  -2.460 -0.3336E-81 -0.9522E-81
  -2.440 -0.3330E-81 -0.9588E-81
  -2.420 -0.3325E-81 -0.9655E-81
  -2.400 -0.3319E-81 -0.9721E-81
  -2.380 -0.3313E-81 -0.9787E-81
  -2.360 -0.3307E-81 -0.9854E-81
  -2.340 -0.3302E-81 -0.9920E-81
  -2.320 -0.3296E-81 -0.9986E-81
  -2.300 -0.3290E-81 -0.1005E-80
  -2.280 -0.3284E-81 -0.1012E-80
  -2.260 -0.3279E-81 -0.1018E-80
  -2.240 -0.3273E-81 -0.1025E-80
  -2.220 -0.3267E-81 -0.1031E-80
  -2.200 -0.3262E-81 -0.1038E-80
  -2.180 -0.3256E-81 -0.1044E-80
  -2.160 -0.3250E-81 -0.1051E-80
  -2.140 -0.3244E-81 -0.1057E-80
  -2.120 -0.3239E-81 -0.1064E-80
  -2.100 -0.3233E-81 -0.1070E-80
  -2.080 -0.3227E-81 -0.1077E-80
  -2.060 -0.3222E-81 -0.1083E-80
  -2.040 -0.3216E-81 -0.1090E-80
  -2.020 -0.3211E-81 -0.1096E-80
  -2.000 -0.3205E-81 -0.1102E-80
  -1.980 -0.3199E-81 -0.1109E-80
  -1.960 -0.3194E-81 -0.1115E-80
  -1.940 -0.3188E-81 -0.1122E-80
  -1.920 -0.3182E-81 -0.1128E-80
  -1.900 -0.3177E-81 -0.1134E-80
  -1.880 -0.3171E-81 -0.1141E-80
  -1.860 -0.3166E-81 -0.1147E-80
  -1.840 -0.3160E-81 -0.1153E-80
  -1.820 -0.3154E-81 -0.1160E-80
  -1.800 -0.3149E-81 -0.1166E-80
  -1.780 -0.3143E-81 -0.1172E-80
  -1.760 -0.3138E-81 -0.1179E-80
  -1.740 -0.3132E-81 -0.1185E-80
  -1.720 -0.3127E-81 -0.1191E-80
  -1.700 -0.3121E-81 -0.1197E-80
  -1.680 -0.3116E-81 -0.1204E-80
  -1.660 -0.3110E-81 -0.1210E-80
  -1.640 -0.3105E-81 -0.1216E-80
  -1.620 -0.3099E-81 -0.1222E-80
  -1.600 -0.3094E-81 -0.1228E-80
  -1.580 -0.3088E-81 -0.1234E-80
  -1.560 -0.3083E-81 -0.1241E-80
  -1.540 -0.3077E-81 -0.1247E-80
  -1.520 -0.3072E-81 -0.1253E-80
  -1.500 -0.3066E-81 -0.1259E-80
  -1.480 -0.3061E-81 -0.1265E-80
  -1.460 -0.3055E-81 -0.1271E-80
  -1.440 -0.3050E-81 -0.1277E-80
  -1.420 -0.3044E-81 -0.1284E-80
  -1.400 -0.3039E-81 -0.1290E-80
  -1.380 -0.3033E-81 -0.1296E-80
  -1.360 -0.3028E-81 -0.1302E-80
  -1.340 -0.3022E-81 -0.1308E-80
  -1.320 -0.3017E-81 -0.1314E-80
  -1.300 -0.3012E-81 -0.1320E-80
  -1.280 -0.3006E-81 -0.1326E-80
  -1.260 -0.3001E-81 -0.1332E-80
  -1.240 -0.2995E-81 -0.1338E-80
  -1.220 -0.2990E-81 -0.1344E-80
  -1.200 -0.2985E-81 -0.1350E-80
  -1.180 -0.2979E-81 -0.1356E-80
  -1.160 -0.2974E-81 -0.1362E-80
  -1.140 -0.2969E-81 -0.1368E-80
  -1.120 -0.2963E-81 -0.1374E-80
  -1.100 -0.2958E-81 -0.1379E-80
  -1.080 -0.2952E-81 -0.1385E-80
  -1.060 -0.2947E-81 -0.1391E-80
  -1.040 -0.2942E-81 -0.1397E-80
  -1.020 -0.2936E-81 -0.1403E-80
  -1.000 -0.2931E-81 -0.1409E-80
  -0.980 -0.2926E-81 -0.1415E-80
  -0.960 -0.2920E-81 -0.1421E-80
  -0.940 -0.2915E-81 -0.1426E-80
  -0.920 -0.2910E-81 -0.1432E-80
  -0.900 -0.2905E-81 -0.1438E-80
  -0.880 -0.2899E-81 -0.1444E-80
  -0.860 -0.2894E-81 -0.1450E-80
  -0.840 -0.2889E-81 -0.1455E-80
  -0.820 -0.2883E-81 -0.1461E-80
  -0.800 -0.2878E-81 -0.1467E-80
  -0.780 -0.2873E-81 -0.1473E-80
  -0.760 -0.2868E-81 -0.1478E-80
  -0.740 -0.2862E-81 -0.1484E-80
  -0.720 -0.2857E-81 -0.1490E-80
  -0.700 -0.2852E-81 -0.1496E-80
  -0.680 -0.2847E-81 -0.1501E-80
  -0.660 -0.2842E-81 -0.1507E-80
  -0.640 -0.2836E-81 -0.1513E-80
  -0.620 -0.2831E-81 -0.1518E-80
  -0.600 -0.2826E-81 -0.1524E-80
  -0.580 -0.2821E-81 -0.1530E-80
  -0.560 -0.2816E-81 -0.1535E-80
  -0.540 -0.2810E-81 -0.1541E-80
  -0.520 -0.2805E-81 -0.1546E-80
  -0.500 -0.2800E-81 -0.1552E-80
  -0.480 -0.2795E-81 -0.1558E-80
  -0.460 -0.2790E-81 -0.1563E-80
  -0.440 -0.2785E-81 -0.1569E-80
  -0.420 -0.2779E-81 -0.1574E-80
  -0.400 -0.2774E-81 -0.1580E-80
  -0.380 -0.2769E-81 -0.1585E-80
  -0.360 -0.2764E-81 -0.1591E-80
  -0.340 -0.2759E-81 -0.1596E-80
  -0.320 -0.2754E-81 -0.1602E-80
  -0.300 -0.2749E-81 -0.1607E-80
  -0.280 -0.2744E-81 -0.1613E-80
  -0.260 -0.2738E-81 -0.1618E-80
  -0.240 -0.2733E-81 -0.1624E-80
  -0.220 -0.2728E-81 -0.1629E-80
  -0.200 -0.2723E-81 -0.1635E-80
  -0.180 -0.2718E-81 -0.1640E-80
  -0.160 -0.2713E-81 -0.1646E-80
  -0.140 -0.2708E-81 -0.1651E-80
  -0.120 -0.2703E-81 -0.1656E-80
  -0.100 -0.2698E-81 -0.1662E-80
  -0.080 -0.2693E-81 -0.1667E-80
  -0.060 -0.2688E-81 -0.1673E-80
  -0.040 -0.2683E-81 -0.1678E-80
  -0.020 -0.2678E-81 -0.1683E-80
   0.000 -0.2673E-81 -0.1689E-80
   0.020 -0.2668E-81 -0.1694E-80
   0.040 -0.2663E-81 -0.1699E-80
   0.060 -0.2658E-81 -0.1705E-80
   0.080 -0.2653E-81 -0.1710E-80
   0.100 -0.2648E-81 -0.1715E-80
   0.120 -0.2643E-81 -0.1721E-80
   0.140 -0.2638E-81 -0.1726E-80
   0.160 -0.2633E-81 -0.1731E-80
   0.180 -0.2628E-81 -0.1736E-80
   0.200 -0.2623E-81 -0.1742E-80
   0.220 -0.2618E-81 -0.1747E-80
   0.240 -0.2613E-81 -0.1752E-80
   0.260 -0.2608E-81 -0.1757E-80
   0.280 -0.2603E-81 -0.1762E-80
   0.300 -0.2598E-81 -0.1768E-80
   0.320 -0.2593E-81 -0.1773E-80
   0.340 -0.2588E-81 -0.1778E-80
   0.360 -0.2584E-81 -0.1783E-80
   0.380 -0.2579E-81 -0.1788E-80
   0.400 -0.2574E-81 -0.1794E-80
   0.420 -0.2569E-81 -0.1799E-80
   0.440 -0.2564E-81 -0.1804E-80
   0.460 -0.2559E-81 -0.1809E-80
   0.480 -0.2554E-81 -0.1814E-80
   0.500 -0.2549E-81 -0.1819E-80
   0.520 -0.2545E-81 -0.1824E-80
   0.540 -0.2540E-81 -0.1829E-80
   0.560 -0.2535E-81 -0.1834E-80
   0.580 -0.2530E-81 -0.1839E-80
   0.600 -0.2525E-81 -0.1844E-80
   0.620 -0.2520E-81 -0.1849E-80
   0.640 -0.2516E-81 -0.1855E-80
   0.660 -0.2511E-81 -0.1860E-80
   0.680 -0.2506E-81 -0.1865E-80
   0.700 -0.2501E-81 -0.1870E-80
   0.720 -0.2496E-81 -0.1875E-80
   0.740 -0.2492E-81 -0.1880E-80
   0.760 -0.2487E-81 -0.1885E-80
   0.780 -0.2482E-81 -0.1889E-80
   0.800 -0.2477E-81 -0.1894E-80
   0.820 -0.2473E-81 -0.1899E-80
   0.840 -0.2468E-81 -0.1904E-80
   0.860 -0.2463E-81 -0.1909E-80
   0.880 -0.2458E-81 -0.1914E-80
   0.900 -0.2454E-81 -0.1919E-80
   0.920 -0.2449E-81 -0.1924E-80
   0.940 -0.2444E-81 -0.1929E-80
   0.960 -0.2439E-81 -0.1934E-80
   0.980 -0.2435E-81 -0.1939E-80
   1.000 -0.2430E-81 -0.1943E-80
   1.020 -0.2425E-81 -0.1948E-80
   1.040 -0.2421E-81 -0.1953E-80
   1.060 -0.2416E-81 -0.1958E-80
   1.080 -0.2411E-81 -0.1963E-80
   1.100 -0.2407E-81 -0.1968E-80
   1.120 -0.2402E-81 -0.1972E-80
   1.140 -0.2397E-81 -0.1977E-80
   1.160 -0.2393E-81 -0.1982E-80
   1.180 -0.2388E-81 -0.1987E-80
   1.200 -0.2383E-81 -0.1992E-80
   1.220 -0.2379E-81 -0.1996E-80
   1.240 -0.2374E-81 -0.2001E-80
   1.260 -0.2369E-81 -0.2006E-80
   1.280 -0.2365E-81 -0.2011E-80
   1.300 -0.2360E-81 -0.2015E-80
   1.320 -0.2356E-81 -0.2020E-80
   1.340 -0.2351E-81 -0.2025E-80
   1.360 -0.2346E-81 -0.2029E-80
   1.380 -0.2343E-81 -0.2034E-80
   1.400 -0.2344E-81 -0.2039E-80
   1.420 -0.2387E-81 -0.2043E-80
   1.440 -0.2738E-81 -0.2049E-80
   1.460 -0.5364E-81 -0.2060E-80
   1.480 -0.2464E-80 -0.2109E-80
   1.500 -0.1644E-79 -0.2438E-80
   1.520 -0.1166E-78 -0.4770E-80
   1.540 -0.8270E-78 -0.2131E-79
   1.560 -0.5810E-77 -0.1375E-78
   1.580 -0.4039E-76 -0.9453E-78
   1.600 -0.2777E-75 -0.6500E-77
   1.620 -0.1889E-74 -0.4428E-76
   1.640 -0.1271E-73 -0.2985E-75
   1.660 -0.8460E-73 -0.1991E-74
   1.680 -0.5570E-72 -0.1313E-73
   1.700 -0.3628E-71 -0.8569E-73
   1.720 -0.2337E-70 -0.5531E-72
   1.740 -0.1489E-69 -0.3532E-71
   1.760 -0.9388E-69 -0.2231E-70
   1.780 -0.5854E-68 -0.1394E-69
   1.800 -0.3611E-67 -0.8616E-69
   1.820 -0.2203E-66 -0.5268E-68
   1.840 -0.1330E-65 -0.3186E-67
   1.860 -0.7938E-65 -0.1906E-66
   1.880 -0.4688E-64 -0.1128E-65
   1.900 -0.2738E-63 -0.6605E-65
   1.920 -0.1582E-62 -0.3825E-64
   1.940 -0.9044E-62 -0.2191E-63
   1.960 -0.5113E-61 -0.1242E-62
   1.980 -0.2860E-60 -0.6961E-62
   2.000 -0.1582E-59 -0.3860E-61
   2.020 -0.8658E-59 -0.2118E-60
   2.040 -0.4686E-58 -0.1149E-59
   2.060 -0.2509E-57 -0.6168E-59
   2.080 -0.1329E-56 -0.3275E-58
   2.100 -0.6963E-56 -0.1720E-57
   2.120 -0.3608E-55 -0.8937E-57
   2.140 -0.1850E-54 -0.4593E-56
   2.160 -0.9379E-54 -0.2335E-55
   2.180 -0.4704E-53 -0.1174E-54
   2.200 -0.2334E-52 -0.5842E-54
   2.220 -0.1145E-51 -0.2875E-53
   2.240 -0.5560E-51 -0.1400E-52
   2.260 -0.2670E-50 -0.6739E-52
   2.280 -0.1268E-49 -0.3210E-51
   2.300 -0.5957E-49 -0.1512E-50
   2.320 -0.2769E-48 -0.7050E-50
   2.340 -0.1273E-47 -0.3250E-49
   2.360 -0.5787E-47 -0.1482E-48
   2.380 -0.2603E-46 -0.6688E-48
   2.400 -0.1158E-45 -0.2984E-47
   2.420 -0.5095E-45 -0.1317E-46
   2.440 -0.2218E-44 -0.5753E-46
   2.460 -0.9548E-44 -0.2485E-45
   2.480 -0.4066E-43 -0.1062E-44
   2.500 -0.1713E-42 -0.4488E-44
   2.520 -0.7138E-42 -0.1876E-43
   2.540 -0.2942E-41 -0.7760E-43
   2.560 -0.1199E-40 -0.3174E-42
   2.580 -0.4836E-40 -0.1285E-41
   2.600 -0.1929E-39 -0.5142E-41
   2.620 -0.7609E-39 -0.2036E-40
   2.640 -0.2969E-38 -0.7975E-40
   2.660 -0.1146E-37 -0.3090E-39
   2.680 -0.4376E-37 -0.1184E-38
   2.700 -0.1653E-36 -0.4489E-38
   2.720 -0.6173E-36 -0.1683E-37
   2.740 -0.2280E-35 -0.6244E-37
   2.760 -0.8334E-35 -0.2291E-36
   2.780 -0.3012E-34 -0.8316E-36
   2.800 -0.1077E-33 -0.2986E-35
   2.820 -0.3808E-33 -0.1060E-34
   2.840 -0.1332E-32 -0.3724E-34
   2.860 -0.4609E-32 -0.1294E-33
   2.880 -0.1577E-31 -0.4448E-33
   2.900 -0.5337E-31 -0.1512E-32
   2.920 -0.1787E-30 -0.5086E-32
   2.940 -0.5916E-30 -0.1692E-31
   2.960 -0.1938E-29 -0.5567E-31
   2.980 -0.6276E-29 -0.1812E-30
   3.000 -0.2011E-28 -0.5834E-30
   3.020 -0.6372E-28 -0.1858E-29
   3.040 -0.1997E-27 -0.5852E-29
   3.060 -0.6191E-27 -0.1823E-28
   3.080 -0.1898E-26 -0.5620E-28
   3.100 -0.5756E-26 -0.1713E-27
   3.120 -0.1727E-25 -0.5166E-27
   3.140 -0.5122E-25 -0.1541E-26
   3.160 -0.1503E-24 -0.4546E-26
   3.180 -0.4361E-24 -0.1327E-25
   3.200 -0.1252E-23 -0.3830E-25
   3.220 -0.3553E-23 -0.1094E-24
   3.240 -0.9974E-23 -0.3088E-24
   3.260 -0.2769E-22 -0.8627E-24
   3.280 -0.7605E-22 -0.2384E-23
   3.300 -0.2066E-21 -0.6515E-23
   3.320 -0.5549E-21 -0.1761E-22
   3.340 -0.1474E-20 -0.4709E-22
   3.360 -0.3873E-20 -0.1245E-21
   3.380 -0.1006E-19 -0.3258E-21
   3.400 -0.2586E-19 -0.8430E-21
   3.420 -0.6573E-19 -0.2158E-20
   3.440 -0.1652E-18 -0.5462E-20
   3.460 -0.4106E-18 -0.1367E-19
   3.480 -0.1009E-17 -0.3386E-19
   3.500 -0.2454E-17 -0.8295E-19
   3.520 -0.5901E-17 -0.2010E-18
   3.540 -0.1403E-16 -0.4815E-18
   3.560 -0.3299E-16 -0.1141E-17
   3.580 -0.7670E-16 -0.2675E-17
   3.600 -0.1764E-15 -0.6203E-17
   3.620 -0.4011E-15 -0.1422E-16
   3.640 -0.9019E-15 -0.3226E-16
   3.660 -0.2006E-14 -0.7237E-16
   3.680 -0.4410E-14 -0.1606E-15
   3.700 -0.9589E-14 -0.3524E-15
   3.720 -0.2062E-13 -0.7647E-15
   3.740 -0.4384E-13 -0.1641E-14
   3.760 -0.9216E-13 -0.3485E-14
   3.780 -0.1916E-12 -0.7317E-14
   3.800 -0.3939E-12 -0.1519E-13
   3.820 -0.8005E-12 -0.3120E-13
   3.840 -0.1609E-11 -0.6338E-13
   3.860 -0.3197E-11 -0.1273E-12
   3.880 -0.6281E-11 -0.2529E-12
   3.900 -0.1220E-10 -0.4970E-12
   3.920 -0.2344E-10 -0.9657E-12
   3.940 -0.4451E-10 -0.1856E-11
   3.960 -0.8356E-10 -0.3527E-11
   3.980 -0.1551E-09 -0.6629E-11
   4.000 -0.2846E-09 -0.1232E-10
   4.020 -0.5164E-09 -0.2265E-10
   4.040 -0.9262E-09 -0.4117E-10
   4.060 -0.1642E-08 -0.7402E-10
   4.080 -0.2879E-08 -0.1316E-09
   4.100 -0.4988E-08 -0.2314E-09
   4.120 -0.8545E-08 -0.4023E-09
   4.140 -0.1447E-07 -0.6917E-09
   4.160 -0.2422E-07 -0.1176E-08
   4.180 -0.4007E-07 -0.1977E-08
   4.200 -0.6554E-07 -0.3288E-08
   4.220 -0.1060E-06 -0.5407E-08
   4.240 -0.1693E-06 -0.8793E-08
   4.260 -0.2674E-06 -0.1414E-07
   4.280 -0.4175E-06 -0.2249E-07
   4.300 -0.6442E-06 -0.3537E-07
   4.320 -0.9825E-06 -0.5502E-07
   4.340 -0.1481E-05 -0.8465E-07
   4.360 -0.2207E-05 -0.1288E-06
   4.380 -0.3250E-05 -0.1938E-06
   4.400 -0.4732E-05 -0.2884E-06
   4.420 -0.6809E-05 -0.4246E-06
   4.440 -0.9686E-05 -0.6183E-06
   4.460 -0.1362E-04 -0.8907E-06
   4.480 -0.1893E-04 -0.1269E-05
   4.500 -0.2602E-04 -0.1790E-05
   4.520 -0.3536E-04 -0.2497E-05
   4.540 -0.4752E-04 -0.3448E-05
   4.560 -0.6315E-04 -0.4710E-05
   4.580 -0.8299E-04 -0.6370E-05
   4.600 -0.1079E-03 -0.8528E-05
   4.620 -0.1387E-03 -0.1130E-04
   4.640 -0.1765E-03 -0.1483E-04
   4.660 -0.2222E-03 -0.1928E-04
   4.680 -0.2769E-03 -0.2482E-04
   4.700 -0.3413E-03 -0.3164E-04
   4.720 -0.4163E-03 -0.3997E-04
   4.740 -0.5025E-03 -0.5002E-04
   4.760 -0.5999E-03 -0.6201E-04
   4.780 -0.7081E-03 -0.7618E-04
   4.800 -0.8260E-03 -0.9270E-04
   4.820 -0.9513E-03 -0.1117E-03
   4.840 -0.1080E-02 -0.1333E-03
   4.860 -0.1207E-02 -0.1575E-03
   4.880 -0.1325E-02 -0.1840E-03
   4.900 -0.1422E-02 -0.2124E-03
   4.920 -0.1485E-02 -0.2421E-03
   4.940 -0.1495E-02 -0.2720E-03
   4.960 -0.1432E-02 -0.3007E-03
   4.980 -0.1269E-02 -0.3260E-03
   5.000 -0.9760E-03 -0.3456E-03
   5.020 -0.5197E-03 -0.3560E-03
   5.040  0.1356E-03 -0.3532E-03
   5.060  0.1026E-02 -0.3327E-03
   5.080  0.2187E-02 -0.2890E-03
   5.100  0.3648E-02 -0.2160E-03
   5.120  0.5435E-02 -0.1073E-03
   5.140  0.7559E-02  0.4387E-04
   5.160  0.1002E-01  0.2443E-03
   5.180  0.1281E-01  0.5005E-03
   5.200  0.1588E-01  0.8181E-03
   5.220  0.1919E-01  0.1202E-02
   5.240  0.2267E-01  0.1655E-02
   5.260  0.2624E-01  0.2180E-02
   5.280  0.2978E-01  0.2776E-02
   5.300  0.3321E-01  0.3440E-02
   5.320  0.3641E-01  0.4168E-02
   5.340  0.3930E-01  0.4954E-02
   5.360  0.4178E-01  0.5790E-02
   5.380  0.4380E-01  0.6666E-02
   5.400  0.4532E-01  0.7572E-02
   5.420  0.4635E-01  0.8499E-02
   5.440  0.4692E-01  0.9437E-02
   5.460  0.4711E-01  0.1038E-01
   5.480  0.4702E-01  0.1132E-01
   5.500  0.4679E-01  0.1226E-01
   5.520  0.4658E-01  0.1319E-01
   5.540  0.4654E-01  0.1412E-01
   5.560  0.4686E-01  0.1506E-01
   5.580  0.4769E-01  0.1601E-01
   5.600  0.4918E-01  0.1699E-01
   5.620  0.5144E-01  0.1802E-01
   5.640  0.5454E-01  0.1911E-01
   5.660  0.5851E-01  0.2028E-01
   5.680  0.6334E-01  0.2155E-01
   5.700  0.6894E-01  0.2293E-01
   5.720  0.7520E-01  0.2443E-01
   5.740  0.8193E-01  0.2607E-01
   5.760  0.8891E-01  0.2785E-01
   5.780  0.9589E-01  0.2977E-01
   5.800  0.1026E+00  0.3182E-01
   5.820  0.1087E+00  0.3399E-01
   5.840  0.1140E+00  0.3627E-01
   5.860  0.1181E+00  0.3863E-01
   5.880  0.1208E+00  0.4105E-01
   5.900  0.1221E+00  0.4349E-01
   5.920  0.1217E+00  0.4593E-01
   5.940  0.1196E+00  0.4832E-01
   5.960  0.1159E+00  0.5064E-01
   5.980  0.1108E+00  0.5285E-01
   6.000  0.1044E+00  0.5494E-01
   6.020  0.9699E-01  0.5688E-01
   6.040  0.8902E-01  0.5866E-01
   6.060  0.8083E-01  0.6028E-01
   6.080  0.7285E-01  0.6173E-01
   6.100  0.6549E-01  0.6304E-01
   6.120  0.5912E-01  0.6422E-01
   6.140  0.5412E-01  0.6531E-01
   6.160  0.5075E-01  0.6632E-01
   6.180  0.4927E-01  0.6731E-01
   6.200  0.4982E-01  0.6830E-01
   6.220  0.5251E-01  0.6935E-01
   6.240  0.5737E-01  0.7050E-01
   6.260  0.6441E-01  0.7179E-01
   6.280  0.7360E-01  0.7326E-01
   6.300  0.8492E-01  0.7496E-01
   6.320  0.9837E-01  0.7693E-01
   6.340  0.1140E+00  0.7921E-01
   6.360  0.1319E+00  0.8184E-01
   6.380  0.1522E+00  0.8489E-01
   6.400  0.1753E+00  0.8839E-01
   6.420  0.2014E+00  0.9242E-01
   6.440  0.2309E+00  0.9704E-01
   6.460  0.2644E+00  0.1023E+00
   6.480  0.3022E+00  0.1084E+00
   6.500  0.3450E+00  0.1153E+00
   6.520  0.3932E+00  0.1231E+00
   6.540  0.4472E+00  0.1321E+00
   6.560  0.5075E+00  0.1422E+00
   6.580  0.5741E+00  0.1537E+00
   6.600  0.6474E+00  0.1667E+00
   6.620  0.7273E+00  0.1812E+00
   6.640  0.8137E+00  0.1975E+00
   6.660  0.9064E+00  0.2156E+00
   6.680  0.1005E+01  0.2357E+00
   6.700  0.1110E+01  0.2579E+00
   6.720  0.1219E+01  0.2823E+00
   6.740  0.1334E+01  0.3090E+00
   6.760  0.1453E+01  0.3380E+00
   6.780  0.1576E+01  0.3696E+00
   6.800  0.1703E+01  0.4036E+00
   6.820  0.1833E+01  0.4403E+00
   6.840  0.1965E+01  0.4796E+00
   6.860  0.2099E+01  0.5216E+00
   6.880  0.2234E+01  0.5662E+00
   6.900  0.2368E+01  0.6136E+00
   6.920  0.2501E+01  0.6636E+00
   6.940  0.2630E+01  0.7162E+00
   6.960  0.2755E+01  0.7713E+00
   6.980  0.2872E+01  0.8288E+00
   7.000  0.2981E+01  0.8884E+00
   7.020  0.3079E+01  0.9500E+00
   7.040  0.3163E+01  0.1013E+01
   7.060  0.3234E+01  0.1078E+01
   7.080  0.3288E+01  0.1144E+01
   7.100  0.3325E+01  0.1210E+01
   7.120  0.3344E+01  0.1277E+01
   7.140  0.3347E+01  0.1344E+01
   7.160  0.3332E+01  0.1411E+01
   7.180  0.3301E+01  0.1477E+01
   7.200  0.3256E+01  0.1542E+01
   7.220  0.3199E+01  0.1606E+01
   7.240  0.3132E+01  0.1668E+01
   7.260  0.3058E+01  0.1730E+01
   7.280  0.2979E+01  0.1789E+01
   7.300  0.2897E+01  0.1847E+01
   7.320  0.2816E+01  0.1903E+01
   7.340  0.2737E+01  0.1958E+01
   7.360  0.2662E+01  0.2011E+01
   7.380  0.2592E+01  0.2063E+01
   7.400  0.2528E+01  0.2114E+01
   7.420  0.2471E+01  0.2163E+01
   7.440  0.2421E+01  0.2212E+01
   7.460  0.2377E+01  0.2259E+01
   7.480  0.2339E+01  0.2306E+01
   7.500  0.2308E+01  0.2352E+01
   7.520  0.2282E+01  0.2398E+01
   7.540  0.2260E+01  0.2443E+01
   7.560  0.2244E+01  0.2488E+01
   7.580  0.2231E+01  0.2532E+01
   7.600  0.2223E+01  0.2577E+01
   7.620  0.2218E+01  0.2621E+01
   7.640  0.2218E+01  0.2666E+01
   7.660  0.2222E+01  0.2710E+01
   7.680  0.2231E+01  0.2755E+01
   7.700  0.2244E+01  0.2800E+01
   7.720  0.2260E+01  0.2845E+01
   7.740  0.2281E+01  0.2890E+01
   7.760  0.2304E+01  0.2936E+01
   7.780  0.2330E+01  0.2983E+01
   7.800  0.2357E+01  0.3030E+01
   7.820  0.2383E+01  0.3078E+01
   7.840  0.2408E+01  0.3126E+01
   7.860  0.2431E+01  0.3175E+01
   7.880  0.2450E+01  0.3224E+01
   7.900  0.2465E+01  0.3273E+01
   7.920  0.2475E+01  0.3322E+01
   7.940  0.2481E+01  0.3372E+01
   7.960  0.2482E+01  0.3422E+01
   7.980  0.2481E+01  0.3471E+01
   8.000  0.2478E+01  0.3521E+01
   8.020  0.2476E+01  0.3570E+01
   8.040  0.2476E+01  0.3620E+01
   8.060  0.2480E+01  0.3669E+01
   8.080  0.2490E+01  0.3719E+01
   8.100  0.2510E+01  0.3769E+01
   8.120  0.2540E+01  0.3820E+01
   8.140  0.2581E+01  0.3872E+01
   8.160  0.2636E+01  0.3925E+01
   8.180  0.2703E+01  0.3979E+01
   8.200  0.2784E+01  0.4034E+01
   8.220  0.2876E+01  0.4092E+01
   8.240  0.2978E+01  0.4151E+01
   8.260  0.3088E+01  0.4213E+01
   8.280  0.3203E+01  0.4277E+01
   8.300  0.3320E+01  0.4344E+01
   8.320  0.3436E+01  0.4412E+01
   8.340  0.3547E+01  0.4483E+01
   8.360  0.3650E+01  0.4556E+01
   8.380  0.3741E+01  0.4631E+01
   8.400  0.3818E+01  0.4707E+01
   8.420  0.3878E+01  0.4785E+01
   8.440  0.3918E+01  0.4863E+01
   8.460  0.3938E+01  0.4942E+01
   8.480  0.3937E+01  0.5021E+01
   8.500  0.3914E+01  0.5099E+01
   8.520  0.3871E+01  0.5177E+01
   8.540  0.3809E+01  0.5253E+01
   8.560  0.3729E+01  0.5327E+01
   8.580  0.3635E+01  0.5400E+01
   8.600  0.3529E+01  0.5471E+01
   8.620  0.3414E+01  0.5539E+01
   8.640  0.3294E+01  0.5605E+01
   8.660  0.3172E+01  0.5668E+01
   8.680  0.3051E+01  0.5729E+01
   8.700  0.2935E+01  0.5788E+01
   8.720  0.2826E+01  0.5844E+01
   8.740  0.2726E+01  0.5899E+01
   8.760  0.2638E+01  0.5952E+01
   8.780  0.2563E+01  0.6003E+01
   8.800  0.2502E+01  0.6053E+01
   8.820  0.2456E+01  0.6102E+01
   8.840  0.2425E+01  0.6151E+01
   8.860  0.2408E+01  0.6199E+01
   8.880  0.2406E+01  0.6247E+01
   8.900  0.2417E+01  0.6295E+01
   8.920  0.2441E+01  0.6344E+01
   8.940  0.2477E+01  0.6394E+01
   8.960  0.2523E+01  0.6444E+01
   8.980  0.2577E+01  0.6496E+01
   9.000  0.2639E+01  0.6548E+01
   9.020  0.2705E+01  0.6603E+01
   9.040  0.2775E+01  0.6658E+01
   9.060  0.2845E+01  0.6715E+01
   9.080  0.2914E+01  0.6773E+01
   9.100  0.2980E+01  0.6833E+01
   9.120  0.3039E+01  0.6894E+01
   9.140  0.3090E+01  0.6955E+01
   9.160  0.3131E+01  0.7018E+01
   9.180  0.3159E+01  0.7081E+01
   9.200  0.3175E+01  0.7145E+01
   9.220  0.3176E+01  0.7208E+01
   9.240  0.3163E+01  0.7272E+01
   9.260  0.3137E+01  0.7334E+01
   9.280  0.3099E+01  0.7396E+01
   9.300  0.3051E+01  0.7457E+01
   9.320  0.2995E+01  0.7517E+01
   9.340  0.2935E+01  0.7576E+01
   9.360  0.2873E+01  0.7633E+01
   9.380  0.2812E+01  0.7690E+01
   9.400  0.2756E+01  0.7745E+01
   9.420  0.2705E+01  0.7799E+01
   9.440  0.2663E+01  0.7852E+01
   9.460  0.2629E+01  0.7905E+01
   9.480  0.2604E+01  0.7957E+01
   9.500  0.2588E+01  0.8008E+01
   9.520  0.2579E+01  0.8060E+01
   9.540  0.2575E+01  0.8112E+01
   9.560  0.2575E+01  0.8163E+01
   9.580  0.2576E+01  0.8215E+01
   9.600  0.2577E+01  0.8266E+01
   9.620  0.2577E+01  0.8318E+01
   9.640  0.2576E+01  0.8369E+01
   9.660  0.2572E+01  0.8421E+01
   9.680  0.2568E+01  0.8472E+01
   9.700  0.2565E+01  0.8523E+01
   9.720  0.2566E+01  0.8575E+01
   9.740  0.2573E+01  0.8626E+01
   9.760  0.2588E+01  0.8678E+01
   9.780  0.2616E+01  0.8730E+01
   9.800  0.2659E+01  0.8783E+01
   9.820  0.2716E+01  0.8838E+01
   9.840  0.2791E+01  0.8893E+01
   9.860  0.2881E+01  0.8951E+01
   9.880  0.2985E+01  0.9011E+01
   9.900  0.3100E+01  0.9073E+01
   9.920  0.3221E+01  0.9137E+01
   9.940  0.3343E+01  0.9204E+01
   9.960  0.3461E+01  0.9273E+01
   9.980  0.3568E+01  0.9345E+01
  10.000  0.3658E+01  0.9418E+01
  10.020  0.3724E+01  0.9492E+01
  10.040  0.3763E+01  0.9568E+01
  10.060  0.3769E+01  0.9643E+01
  10.080  0.3740E+01  0.9718E+01
  10.100  0.3675E+01  0.9791E+01
  10.120  0.3574E+01  0.9863E+01
  10.140  0.3437E+01  0.9931E+01
  10.160  0.3269E+01  0.9997E+01
  10.180  0.3073E+01  0.1006E+02
  10.200  0.2854E+01  0.1012E+02
  10.220  0.2617E+01  0.1017E+02
  10.240  0.2369E+01  0.1022E+02
  10.260  0.2114E+01  0.1026E+02
  10.280  0.1860E+01  0.1029E+02
  10.300  0.1611E+01  0.1033E+02
  10.320  0.1372E+01  0.1035E+02
  10.340  0.1147E+01  0.1038E+02
  10.360  0.9384E+00  0.1040E+02
  10.380  0.7489E+00  0.1041E+02
  10.400  0.5799E+00  0.1042E+02
  10.420  0.4318E+00  0.1043E+02
  10.440  0.3046E+00  0.1044E+02
  10.460  0.1976E+00  0.1044E+02
  10.480  0.1096E+00  0.1044E+02
  10.500  0.3920E-01  0.1044E+02
  10.520 -0.1549E-01  0.1044E+02
  10.540 -0.5630E-01  0.1044E+02
  10.560 -0.8514E-01  0.1044E+02
  10.580 -0.1039E+00  0.1044E+02
  10.600 -0.1143E+00  0.1044E+02
  10.620 -0.1179E+00  0.1043E+02
  10.640 -0.1161E+00  0.1043E+02
  10.660 -0.1101E+00  0.1043E+02
  10.680 -0.1008E+00  0.1043E+02
  10.700 -0.8895E-01  0.1043E+02
  10.720 -0.7498E-01  0.1042E+02
  10.740 -0.5924E-01  0.1042E+02
  10.760 -0.4188E-01  0.1042E+02
  10.780 -0.2293E-01  0.1042E+02
  10.800 -0.2331E-02  0.1042E+02
  10.820  0.2001E-01  0.1042E+02
  10.840  0.4420E-01  0.1042E+02
  10.860  0.7030E-01  0.1042E+02
  10.880  0.9834E-01  0.1043E+02
  10.900  0.1282E+00  0.1043E+02
  10.920  0.1598E+00  0.1043E+02
  10.940  0.1926E+00  0.1044E+02
  10.960  0.2264E+00  0.1044E+02
  10.980  0.2606E+00  0.1045E+02
  11.000  0.2946E+00  0.1045E+02
  11.020  0.3277E+00  0.1046E+02
  11.040  0.3592E+00  0.1047E+02
  11.060  0.3885E+00  0.1047E+02
  11.080  0.4149E+00  0.1048E+02
  11.100  0.4378E+00  0.1049E+02
  11.120  0.4569E+00  0.1050E+02
  11.140  0.4718E+00  0.1051E+02
  11.160  0.4824E+00  0.1052E+02
  11.180  0.4886E+00  0.1053E+02
  11.200  0.4906E+00  0.1054E+02
  11.220  0.4886E+00  0.1055E+02
  11.240  0.4830E+00  0.1056E+02
  11.260  0.4741E+00  0.1057E+02
  11.280  0.4624E+00  0.1058E+02
  11.300  0.4484E+00  0.1059E+02
  11.320  0.4326E+00  0.1059E+02
  11.340  0.4153E+00  0.1060E+02
  11.360  0.3970E+00  0.1061E+02
  11.380  0.3780E+00  0.1062E+02
  11.400  0.3588E+00  0.1063E+02
  11.420  0.3395E+00  0.1063E+02
  11.440  0.3205E+00  0.1064E+02
  11.460  0.3019E+00  0.1064E+02
  11.480  0.2840E+00  0.1065E+02
  11.500  0.2668E+00  0.1066E+02
  11.520  0.2505E+00  0.1066E+02
  11.540  0.2351E+00  0.1066E+02
  11.560  0.2208E+00  0.1067E+02
  11.580  0.2074E+00  0.1067E+02
  11.600  0.1951E+00  0.1068E+02
  11.620  0.1838E+00  0.1068E+02
  11.640  0.1734E+00  0.1068E+02
  11.660  0.1640E+00  0.1069E+02
  11.680  0.1554E+00  0.1069E+02
  11.700  0.1475E+00  0.1069E+02
  11.720  0.1404E+00  0.1070E+02
  11.740  0.1340E+00  0.1070E+02
  11.760  0.1282E+00  0.1070E+02
  11.780  0.1229E+00  0.1070E+02
  11.800  0.1182E+00  0.1071E+02
  11.820  0.1139E+00  0.1071E+02
  11.840  0.1100E+00  0.1071E+02
  11.860  0.1066E+00  0.1071E+02
  11.880  0.1034E+00  0.1072E+02
  11.900  0.1004E+00  0.1072E+02
  11.920  0.9750E-01  0.1072E+02
  11.940  0.9466E-01  0.1072E+02
  11.960  0.9178E-01  0.1072E+02
  11.980  0.8878E-01  0.1072E+02
  12.000  0.8565E-01  0.1073E+02
  12.020  0.8236E-01  0.1073E+02
  12.040  0.7897E-01  0.1073E+02
  12.060  0.7557E-01  0.1073E+02
  12.080  0.7229E-01  0.1073E+02
  12.100  0.6933E-01  0.1073E+02
  12.120  0.6692E-01  0.1074E+02
  12.140  0.6531E-01  0.1074E+02
  12.160  0.6481E-01  0.1074E+02
  12.180  0.6572E-01  0.1074E+02
  12.200  0.6835E-01  0.1074E+02
  12.220  0.7299E-01  0.1074E+02
  12.240  0.7992E-01  0.1074E+02
  12.260  0.8935E-01  0.1075E+02
  12.280  0.1015E+00  0.1075E+02
  12.300  0.1164E+00  0.1075E+02
  12.320  0.1341E+00  0.1075E+02
  12.340  0.1546E+00  0.1076E+02
  12.360  0.1776E+00  0.1076E+02
  12.380  0.2030E+00  0.1076E+02
  12.400  0.2304E+00  0.1077E+02
  12.420  0.2592E+00  0.1077E+02
  12.440  0.2889E+00  0.1078E+02
  12.460  0.3189E+00  0.1079E+02
  12.480  0.3484E+00  0.1079E+02
  12.500  0.3768E+00  0.1080E+02
  12.520  0.4033E+00  0.1081E+02
  12.540  0.4273E+00  0.1082E+02
  12.560  0.4481E+00  0.1083E+02
  12.580  0.4653E+00  0.1083E+02
  12.600  0.4785E+00  0.1084E+02
  12.620  0.4875E+00  0.1085E+02
  12.640  0.4922E+00  0.1086E+02
  12.660  0.4930E+00  0.1087E+02
  12.680  0.4899E+00  0.1088E+02
  12.700  0.4835E+00  0.1089E+02
  12.720  0.4743E+00  0.1090E+02
  12.740  0.4629E+00  0.1091E+02
  12.760  0.4501E+00  0.1092E+02
  12.780  0.4364E+00  0.1093E+02
  12.800  0.4224E+00  0.1094E+02
  12.820  0.4087E+00  0.1095E+02
  12.840  0.3958E+00  0.1095E+02
  12.860  0.3839E+00  0.1096E+02
  12.880  0.3732E+00  0.1097E+02
  12.900  0.3637E+00  0.1098E+02
  12.920  0.3553E+00  0.1098E+02
  12.940  0.3479E+00  0.1099E+02
  12.960  0.3411E+00  0.1100E+02
  12.980  0.3347E+00  0.1100E+02
  13.000  0.3283E+00  0.1101E+02
  13.020  0.3216E+00  0.1102E+02
  13.040  0.3143E+00  0.1102E+02
  13.060  0.3064E+00  0.1103E+02
  13.080  0.2977E+00  0.1104E+02
  13.100  0.2882E+00  0.1104E+02
  13.120  0.2782E+00  0.1105E+02
  13.140  0.2678E+00  0.1105E+02
  13.160  0.2573E+00  0.1106E+02
  13.180  0.2469E+00  0.1106E+02
  13.200  0.2370E+00  0.1107E+02
  13.220  0.2278E+00  0.1107E+02
  13.240  0.2194E+00  0.1108E+02
  13.260  0.2120E+00  0.1108E+02
  13.280  0.2055E+00  0.1108E+02
  13.300  0.2000E+00  0.1109E+02
  13.320  0.1953E+00  0.1109E+02
  13.340  0.1912E+00  0.1110E+02
  13.360  0.1875E+00  0.1110E+02
  13.380  0.1840E+00  0.1110E+02
  13.400  0.1806E+00  0.1111E+02
  13.420  0.1771E+00  0.1111E+02
  13.440  0.1734E+00  0.1111E+02
  13.460  0.1695E+00  0.1112E+02
  13.480  0.1655E+00  0.1112E+02
  13.500  0.1613E+00  0.1112E+02
  13.520  0.1572E+00  0.1113E+02
  13.540  0.1531E+00  0.1113E+02
  13.560  0.1493E+00  0.1113E+02
  13.580  0.1457E+00  0.1114E+02
  13.600  0.1424E+00  0.1114E+02
  13.620  0.1395E+00  0.1114E+02
  13.640  0.1369E+00  0.1114E+02
  13.660  0.1346E+00  0.1115E+02
  13.680  0.1326E+00  0.1115E+02
  13.700  0.1308E+00  0.1115E+02
  13.720  0.1292E+00  0.1116E+02
  13.740  0.1279E+00  0.1116E+02
  13.760  0.1269E+00  0.1116E+02
  13.780  0.1263E+00  0.1116E+02
  13.800  0.1262E+00  0.1117E+02
  13.820  0.1268E+00  0.1117E+02
  13.840  0.1284E+00  0.1117E+02
  13.860  0.1311E+00  0.1117E+02
  13.880  0.1351E+00  0.1118E+02
  13.900  0.1406E+00  0.1118E+02
  13.920  0.1478E+00  0.1118E+02
  13.940  0.1566E+00  0.1118E+02
  13.960  0.1672E+00  0.1119E+02
  13.980  0.1795E+00  0.1119E+02
  14.000  0.1934E+00  0.1120E+02
  14.020  0.2087E+00  0.1120E+02
  14.040  0.2253E+00  0.1120E+02
  14.060  0.2428E+00  0.1121E+02
  14.080  0.2611E+00  0.1121E+02
  14.100  0.2799E+00  0.1122E+02
  14.120  0.2990E+00  0.1123E+02
  14.140  0.3181E+00  0.1123E+02
  14.160  0.3369E+00  0.1124E+02
  14.180  0.3553E+00  0.1125E+02
  14.200  0.3730E+00  0.1125E+02
  14.220  0.3898E+00  0.1126E+02
  14.240  0.4055E+00  0.1127E+02
  14.260  0.4199E+00  0.1128E+02
  14.280  0.4326E+00  0.1129E+02
  14.300  0.4435E+00  0.1130E+02
  14.320  0.4522E+00  0.1130E+02
  14.340  0.4586E+00  0.1131E+02
  14.360  0.4624E+00  0.1132E+02
  14.380  0.4635E+00  0.1133E+02
  14.400  0.4618E+00  0.1134E+02
  14.420  0.4571E+00  0.1135E+02
  14.440  0.4496E+00  0.1136E+02
  14.460  0.4395E+00  0.1137E+02
  14.480  0.4269E+00  0.1138E+02
  14.500  0.4122E+00  0.1138E+02
  14.520  0.3957E+00  0.1139E+02
  14.540  0.3780E+00  0.1140E+02
  14.560  0.3594E+00  0.1141E+02
  14.580  0.3405E+00  0.1141E+02
  14.600  0.3218E+00  0.1142E+02
  14.620  0.3036E+00  0.1143E+02
  14.640  0.2862E+00  0.1143E+02
  14.660  0.2700E+00  0.1144E+02
  14.680  0.2551E+00  0.1144E+02
  14.700  0.2416E+00  0.1145E+02
  14.720  0.2297E+00  0.1145E+02
  14.740  0.2193E+00  0.1146E+02
  14.760  0.2105E+00  0.1146E+02
  14.780  0.2031E+00  0.1147E+02
  14.800  0.1972E+00  0.1147E+02
  14.820  0.1928E+00  0.1147E+02
  14.840  0.1899E+00  0.1148E+02
  14.860  0.1884E+00  0.1148E+02
  14.880  0.1883E+00  0.1148E+02
  14.900  0.1896E+00  0.1149E+02
  14.920  0.1923E+00  0.1149E+02
  14.940  0.1961E+00  0.1150E+02
  14.960  0.2008E+00  0.1150E+02
  14.980  0.2063E+00  0.1150E+02
  15.000  0.2121E+00  0.1151E+02
  15.020  0.2178E+00  0.1151E+02
  15.040  0.2230E+00  0.1152E+02
  15.060  0.2273E+00  0.1152E+02
  15.080  0.2303E+00  0.1153E+02
  15.100  0.2316E+00  0.1153E+02
  15.120  0.2310E+00  0.1154E+02
  15.140  0.2285E+00  0.1154E+02
  15.160  0.2239E+00  0.1154E+02
  15.180  0.2176E+00  0.1155E+02
  15.200  0.2098E+00  0.1155E+02
  15.220  0.2010E+00  0.1156E+02
  15.240  0.1916E+00  0.1156E+02
  15.260  0.1824E+00  0.1156E+02
  15.280  0.1738E+00  0.1157E+02
  15.300  0.1665E+00  0.1157E+02
  15.320  0.1610E+00  0.1157E+02
  15.340  0.1578E+00  0.1158E+02
  15.360  0.1572E+00  0.1158E+02
  15.380  0.1592E+00  0.1158E+02
  15.400  0.1641E+00  0.1159E+02
  15.420  0.1715E+00  0.1159E+02
  15.440  0.1813E+00  0.1159E+02
  15.460  0.1930E+00  0.1160E+02
  15.480  0.2061E+00  0.1160E+02
  15.500  0.2201E+00  0.1161E+02
  15.520  0.2342E+00  0.1161E+02
  15.540  0.2480E+00  0.1162E+02
  15.560  0.2608E+00  0.1162E+02
  15.580  0.2720E+00  0.1163E+02
  15.600  0.2813E+00  0.1163E+02
  15.620  0.2883E+00  0.1164E+02
  15.640  0.2927E+00  0.1164E+02
  15.660  0.2944E+00  0.1165E+02
  15.680  0.2936E+00  0.1166E+02
  15.700  0.2902E+00  0.1166E+02
  15.720  0.2845E+00  0.1167E+02
  15.740  0.2768E+00  0.1167E+02
  15.760  0.2675E+00  0.1168E+02
  15.780  0.2568E+00  0.1168E+02
  15.800  0.2453E+00  0.1169E+02
  15.820  0.2333E+00  0.1169E+02
  15.840  0.2210E+00  0.1170E+02
  15.860  0.2088E+00  0.1170E+02
  15.880  0.1969E+00  0.1171E+02
  15.900  0.1855E+00  0.1171E+02
  15.920  0.1746E+00  0.1171E+02
  15.940  0.1643E+00  0.1172E+02
  15.960  0.1547E+00  0.1172E+02
  15.980  0.1458E+00  0.1172E+02
  16.000  0.1376E+00  0.1173E+02
  16.020  0.1301E+00  0.1173E+02
  16.040  0.1235E+00  0.1173E+02
  16.060  0.1177E+00  0.1173E+02
  16.080  0.1129E+00  0.1173E+02
  16.100  0.1092E+00  0.1174E+02
  16.120  0.1068E+00  0.1174E+02
  16.140  0.1057E+00  0.1174E+02
  16.160  0.1060E+00  0.1174E+02
  16.180  0.1079E+00  0.1175E+02
  16.200  0.1112E+00  0.1175E+02
  16.220  0.1159E+00  0.1175E+02
  16.240  0.1218E+00  0.1175E+02
  16.260  0.1289E+00  0.1175E+02
  16.280  0.1367E+00  0.1176E+02
  16.300  0.1450E+00  0.1176E+02
  16.320  0.1536E+00  0.1176E+02
  16.340  0.1621E+00  0.1177E+02
  16.360  0.1703E+00  0.1177E+02
  16.380  0.1780E+00  0.1177E+02
  16.400  0.1852E+00  0.1178E+02
  16.420  0.1919E+00  0.1178E+02
  16.440  0.1981E+00  0.1179E+02
  16.460  0.2040E+00  0.1179E+02
  16.480  0.2099E+00  0.1179E+02
  16.500  0.2161E+00  0.1180E+02
  16.520  0.2227E+00  0.1180E+02
  16.540  0.2301E+00  0.1181E+02
  16.560  0.2384E+00  0.1181E+02
  16.580  0.2476E+00  0.1182E+02
  16.600  0.2579E+00  0.1182E+02
  16.620  0.2690E+00  0.1183E+02
  16.640  0.2806E+00  0.1183E+02
  16.660  0.2925E+00  0.1184E+02
  16.680  0.3040E+00  0.1184E+02
  16.700  0.3148E+00  0.1185E+02
  16.720  0.3243E+00  0.1186E+02
  16.740  0.3320E+00  0.1186E+02
  16.760  0.3376E+00  0.1187E+02
  16.780  0.3407E+00  0.1188E+02
  16.800  0.3411E+00  0.1188E+02
  16.820  0.3388E+00  0.1189E+02
  16.840  0.3339E+00  0.1190E+02
  16.860  0.3267E+00  0.1190E+02
  16.880  0.3175E+00  0.1191E+02
  16.900  0.3069E+00  0.1192E+02
  16.920  0.2954E+00  0.1192E+02
  16.940  0.2837E+00  0.1193E+02
  16.960  0.2725E+00  0.1193E+02
  16.980  0.2623E+00  0.1194E+02
  17.000  0.2538E+00  0.1194E+02
  17.020  0.2475E+00  0.1195E+02
  17.040  0.2438E+00  0.1195E+02
  17.060  0.2431E+00  0.1196E+02
  17.080  0.2456E+00  0.1196E+02
  17.100  0.2515E+00  0.1197E+02
  17.120  0.2607E+00  0.1197E+02
  17.140  0.2731E+00  0.1198E+02
  17.160  0.2886E+00  0.1199E+02
  17.180  0.3069E+00  0.1199E+02
  17.200  0.3275E+00  0.1200E+02
  17.220  0.3499E+00  0.1201E+02
  17.240  0.3738E+00  0.1201E+02
  17.260  0.3983E+00  0.1202E+02
  17.280  0.4229E+00  0.1203E+02
  17.300  0.4469E+00  0.1204E+02
  17.320  0.4696E+00  0.1205E+02
  17.340  0.4902E+00  0.1206E+02
  17.360  0.5082E+00  0.1207E+02
  17.380  0.5228E+00  0.1208E+02
  17.400  0.5335E+00  0.1209E+02
  17.420  0.5399E+00  0.1210E+02
  17.440  0.5417E+00  0.1211E+02
  17.460  0.5385E+00  0.1212E+02
  17.480  0.5304E+00  0.1213E+02
  17.500  0.5175E+00  0.1214E+02
  17.520  0.5000E+00  0.1215E+02
  17.540  0.4784E+00  0.1216E+02
  17.560  0.4531E+00  0.1217E+02
  17.580  0.4248E+00  0.1218E+02
  17.600  0.3943E+00  0.1219E+02
  17.620  0.3622E+00  0.1219E+02
  17.640  0.3293E+00  0.1220E+02
  17.660  0.2964E+00  0.1221E+02
  17.680  0.2641E+00  0.1221E+02
  17.700  0.2330E+00  0.1222E+02
  17.720  0.2037E+00  0.1222E+02
  17.740  0.1766E+00  0.1222E+02
  17.760  0.1521E+00  0.1223E+02
  17.780  0.1303E+00  0.1223E+02
  17.800  0.1116E+00  0.1223E+02
  17.820  0.9605E-01  0.1223E+02
  17.840  0.8383E-01  0.1224E+02
  17.860  0.7507E-01  0.1224E+02
  17.880  0.6988E-01  0.1224E+02
  17.900  0.6835E-01  0.1224E+02
  17.920  0.7055E-01  0.1224E+02
  17.940  0.7653E-01  0.1224E+02
  17.960  0.8625E-01  0.1224E+02
  17.980  0.9959E-01  0.1225E+02
  18.000  0.1163E+00  0.1225E+02
  18.020  0.1361E+00  0.1225E+02
  18.040  0.1584E+00  0.1225E+02
  18.060  0.1827E+00  0.1226E+02
  18.080  0.2081E+00  0.1226E+02
  18.100  0.2340E+00  0.1227E+02
  18.120  0.2595E+00  0.1227E+02
  18.140  0.2836E+00  0.1228E+02
  18.160  0.3058E+00  0.1228E+02
  18.180  0.3253E+00  0.1229E+02
  18.200  0.3416E+00  0.1230E+02
  18.220  0.3545E+00  0.1230E+02
  18.240  0.3640E+00  0.1231E+02
  18.260  0.3701E+00  0.1232E+02
  18.280  0.3732E+00  0.1233E+02
  18.300  0.3738E+00  0.1233E+02
  18.320  0.3725E+00  0.1234E+02
  18.340  0.3698E+00  0.1235E+02
  18.360  0.3664E+00  0.1236E+02
  18.380  0.3627E+00  0.1236E+02
  18.400  0.3591E+00  0.1237E+02
  18.420  0.3557E+00  0.1238E+02
  18.440  0.3527E+00  0.1239E+02
  18.460  0.3497E+00  0.1239E+02
  18.480  0.3465E+00  0.1240E+02
  18.500  0.3427E+00  0.1241E+02
  18.520  0.3379E+00  0.1241E+02
  18.540  0.3317E+00  0.1242E+02
  18.560  0.3238E+00  0.1243E+02
  18.580  0.3140E+00  0.1243E+02
  18.600  0.3024E+00  0.1244E+02
  18.620  0.2892E+00  0.1244E+02
  18.640  0.2749E+00  0.1245E+02
  18.660  0.2601E+00  0.1245E+02
  18.680  0.2455E+00  0.1246E+02
  18.700  0.2320E+00  0.1246E+02
  18.720  0.2205E+00  0.1247E+02
  18.740  0.2117E+00  0.1247E+02
  18.760  0.2063E+00  0.1248E+02
  18.780  0.2049E+00  0.1248E+02
  18.800  0.2076E+00  0.1249E+02
  18.820  0.2146E+00  0.1249E+02
  18.840  0.2256E+00  0.1249E+02
  18.860  0.2402E+00  0.1250E+02
  18.880  0.2579E+00  0.1250E+02
  18.900  0.2777E+00  0.1251E+02
  18.920  0.2989E+00  0.1252E+02
  18.940  0.3205E+00  0.1252E+02
  18.960  0.3415E+00  0.1253E+02
  18.980  0.3611E+00  0.1254E+02
  19.000  0.3785E+00  0.1254E+02
  19.020  0.3931E+00  0.1255E+02
  19.040  0.4044E+00  0.1256E+02
  19.060  0.4120E+00  0.1257E+02
  19.080  0.4159E+00  0.1258E+02
  19.100  0.4160E+00  0.1258E+02
  19.120  0.4125E+00  0.1259E+02
  19.140  0.4056E+00  0.1260E+02
  19.160  0.3959E+00  0.1261E+02
  19.180  0.3837E+00  0.1262E+02
  19.200  0.3696E+00  0.1262E+02
  19.220  0.3541E+00  0.1263E+02
  19.240  0.3379E+00  0.1264E+02
  19.260  0.3214E+00  0.1264E+02
  19.280  0.3050E+00  0.1265E+02
  19.300  0.2893E+00  0.1266E+02
  19.320  0.2746E+00  0.1266E+02
  19.340  0.2612E+00  0.1267E+02
  19.360  0.2493E+00  0.1267E+02
  19.380  0.2389E+00  0.1268E+02
  19.400  0.2302E+00  0.1268E+02
  19.420  0.2232E+00  0.1269E+02
  19.440  0.2178E+00  0.1269E+02
  19.460  0.2139E+00  0.1269E+02
  19.480  0.2116E+00  0.1270E+02
  19.500  0.2108E+00  0.1270E+02
  19.520  0.2114E+00  0.1271E+02
  19.540  0.2135E+00  0.1271E+02
  19.560  0.2171E+00  0.1272E+02
  19.580  0.2222E+00  0.1272E+02
  19.600  0.2289E+00  0.1272E+02
  19.620  0.2373E+00  0.1273E+02
  19.640  0.2474E+00  0.1273E+02
  19.660  0.2591E+00  0.1274E+02
  19.680  0.2724E+00  0.1274E+02
  19.700  0.2872E+00  0.1275E+02
  19.720  0.3031E+00  0.1276E+02
  19.740  0.3198E+00  0.1276E+02
  19.760  0.3369E+00  0.1277E+02
  19.780  0.3539E+00  0.1278E+02
  19.800  0.3702E+00  0.1278E+02
  19.820  0.3853E+00  0.1279E+02
  19.840  0.3985E+00  0.1280E+02
  19.860  0.4094E+00  0.1281E+02
  19.880  0.4174E+00  0.1282E+02
  19.900  0.4223E+00  0.1282E+02
  19.920  0.4239E+00  0.1283E+02
  19.940  0.4220E+00  0.1284E+02
  19.960  0.4167E+00  0.1285E+02
  19.980  0.4083E+00  0.1286E+02
  20.000  0.3970E+00  0.1287E+02
  20.020  0.3834E+00  0.1287E+02
  20.040  0.3681E+00  0.1288E+02
  20.060  0.3515E+00  0.1289E+02
  20.080  0.3345E+00  0.1289E+02
  20.100  0.3177E+00  0.1290E+02
  20.120  0.3017E+00  0.1291E+02
  20.140  0.2871E+00  0.1291E+02
  20.160  0.2744E+00  0.1292E+02
  20.180  0.2641E+00  0.1292E+02
  20.200  0.2565E+00  0.1293E+02
  20.220  0.2518E+00  0.1293E+02
  20.240  0.2502E+00  0.1294E+02
  20.260  0.2516E+00  0.1294E+02
  20.280  0.2561E+00  0.1295E+02
  20.300  0.2634E+00  0.1295E+02
  20.320  0.2732E+00  0.1296E+02
  20.340  0.2852E+00  0.1297E+02
  20.360  0.2989E+00  0.1297E+02
  20.380  0.3138E+00  0.1298E+02
  20.400  0.3294E+00  0.1298E+02
  20.420  0.3450E+00  0.1299E+02
  20.440  0.3600E+00  0.1300E+02
  20.460  0.3739E+00  0.1301E+02
  20.480  0.3861E+00  0.1301E+02
  20.500  0.3962E+00  0.1302E+02
  20.520  0.4037E+00  0.1303E+02
  20.540  0.4084E+00  0.1304E+02
  20.560  0.4101E+00  0.1305E+02
  20.580  0.4088E+00  0.1305E+02
  20.600  0.4048E+00  0.1306E+02
  20.620  0.3981E+00  0.1307E+02
  20.640  0.3892E+00  0.1308E+02
  20.660  0.3785E+00  0.1309E+02
  20.680  0.3667E+00  0.1309E+02
  20.700  0.3542E+00  0.1310E+02
  20.720  0.3418E+00  0.1311E+02
  20.740  0.3301E+00  0.1311E+02
  20.760  0.3198E+00  0.1312E+02
  20.780  0.3116E+00  0.1313E+02
  20.800  0.3060E+00  0.1313E+02
  20.820  0.3037E+00  0.1314E+02
  20.840  0.3051E+00  0.1314E+02
  20.860  0.3105E+00  0.1315E+02
  20.880  0.3201E+00  0.1316E+02
  20.900  0.3341E+00  0.1316E+02
  20.920  0.3524E+00  0.1317E+02
  20.940  0.3745E+00  0.1318E+02
  20.960  0.4001E+00  0.1319E+02
  20.980  0.4284E+00  0.1319E+02
  21.000  0.4585E+00  0.1320E+02
  21.020  0.4895E+00  0.1321E+02
  21.040  0.5203E+00  0.1322E+02
  21.060  0.5495E+00  0.1324E+02
  21.080  0.5762E+00  0.1325E+02
  21.100  0.5992E+00  0.1326E+02
  21.120  0.6175E+00  0.1327E+02
  21.140  0.6305E+00  0.1328E+02
  21.160  0.6376E+00  0.1330E+02
  21.180  0.6387E+00  0.1331E+02
  21.200  0.6339E+00  0.1332E+02
  21.220  0.6236E+00  0.1333E+02
  21.240  0.6085E+00  0.1335E+02
  21.260  0.5896E+00  0.1336E+02
  21.280  0.5681E+00  0.1337E+02
  21.300  0.5452E+00  0.1338E+02
  21.320  0.5222E+00  0.1339E+02
  21.340  0.5006E+00  0.1340E+02
  21.360  0.4813E+00  0.1341E+02
  21.380  0.4656E+00  0.1342E+02
  21.400  0.4541E+00  0.1343E+02
  21.420  0.4475E+00  0.1344E+02
  21.440  0.4459E+00  0.1345E+02
  21.460  0.4494E+00  0.1346E+02
  21.480  0.4577E+00  0.1347E+02
  21.500  0.4700E+00  0.1347E+02
  21.520  0.4858E+00  0.1348E+02
  21.540  0.5040E+00  0.1349E+02
  21.560  0.5236E+00  0.1350E+02
  21.580  0.5435E+00  0.1352E+02
  21.600  0.5625E+00  0.1353E+02
  21.620  0.5795E+00  0.1354E+02
  21.640  0.5935E+00  0.1355E+02
  21.660  0.6036E+00  0.1356E+02
  21.680  0.6092E+00  0.1357E+02
  21.700  0.6096E+00  0.1359E+02
  21.720  0.6046E+00  0.1360E+02
  21.740  0.5940E+00  0.1361E+02
  21.760  0.5779E+00  0.1362E+02
  21.780  0.5568E+00  0.1363E+02
  21.800  0.5312E+00  0.1364E+02
  21.820  0.5017E+00  0.1365E+02
  21.840  0.4692E+00  0.1366E+02
  21.860  0.4347E+00  0.1367E+02
  21.880  0.3992E+00  0.1368E+02
  21.900  0.3638E+00  0.1369E+02
  21.920  0.3295E+00  0.1369E+02
  21.940  0.2972E+00  0.1370E+02
  21.960  0.2677E+00  0.1371E+02
  21.980  0.2418E+00  0.1371E+02
  22.000  0.2199E+00  0.1371E+02
  22.020  0.2024E+00  0.1372E+02
  22.040  0.1894E+00  0.1372E+02
  22.060  0.1807E+00  0.1373E+02
  22.080  0.1760E+00  0.1373E+02
  22.100  0.1750E+00  0.1373E+02
  22.120  0.1770E+00  0.1374E+02
  22.140  0.1812E+00  0.1374E+02
  22.160  0.1872E+00  0.1374E+02
  22.180  0.1940E+00  0.1375E+02
  22.200  0.2010E+00  0.1375E+02
  22.220  0.2078E+00  0.1376E+02
  22.240  0.2140E+00  0.1376E+02
  22.260  0.2193E+00  0.1376E+02
  22.280  0.2238E+00  0.1377E+02
  22.300  0.2277E+00  0.1377E+02
  22.320  0.2314E+00  0.1378E+02
  22.340  0.2355E+00  0.1378E+02
  22.360  0.2407E+00  0.1379E+02
  22.380  0.2476E+00  0.1379E+02
  22.400  0.2571E+00  0.1380E+02
  22.420  0.2698E+00  0.1380E+02
  22.440  0.2863E+00  0.1381E+02
  22.460  0.3070E+00  0.1382E+02
  22.480  0.3320E+00  0.1382E+02
  22.500  0.3612E+00  0.1383E+02
  22.520  0.3944E+00  0.1384E+02
  22.540  0.4308E+00  0.1385E+02
  22.560  0.4697E+00  0.1385E+02
  22.580  0.5101E+00  0.1387E+02
  22.600  0.5509E+00  0.1388E+02
  22.620  0.5907E+00  0.1389E+02
  22.640  0.6286E+00  0.1390E+02
  22.660  0.6634E+00  0.1391E+02
  22.680  0.6941E+00  0.1393E+02
  22.700  0.7200E+00  0.1394E+02
  22.720  0.7406E+00  0.1396E+02
  22.740  0.7555E+00  0.1397E+02
  22.760  0.7648E+00  0.1399E+02
  22.780  0.7686E+00  0.1400E+02
  22.800  0.7673E+00  0.1402E+02
  22.820  0.7614E+00  0.1403E+02
  22.840  0.7513E+00  0.1405E+02
  22.860  0.7378E+00  0.1406E+02
  22.880  0.7213E+00  0.1408E+02
  22.900  0.7023E+00  0.1409E+02
  22.920  0.6813E+00  0.1411E+02
  22.940  0.6585E+00  0.1412E+02
  22.960  0.6341E+00  0.1413E+02
  22.980  0.6085E+00  0.1414E+02
  23.000  0.5817E+00  0.1415E+02
  23.020  0.5540E+00  0.1417E+02
  23.040  0.5255E+00  0.1418E+02
  23.060  0.4967E+00  0.1419E+02
  23.080  0.4680E+00  0.1420E+02
  23.100  0.4400E+00  0.1420E+02
  23.120  0.4133E+00  0.1421E+02
  23.140  0.3888E+00  0.1422E+02
  23.160  0.3671E+00  0.1423E+02
  23.180  0.3490E+00  0.1423E+02
  23.200  0.3352E+00  0.1424E+02
  23.220  0.3261E+00  0.1425E+02
  23.240  0.3221E+00  0.1425E+02
  23.260  0.3232E+00  0.1426E+02
  23.280  0.3292E+00  0.1427E+02
  23.300  0.3397E+00  0.1427E+02
  23.320  0.3539E+00  0.1428E+02
  23.340  0.3710E+00  0.1429E+02
  23.360  0.3900E+00  0.1430E+02
  23.380  0.4096E+00  0.1430E+02
  23.400  0.4288E+00  0.1431E+02
  23.420  0.4464E+00  0.1432E+02
  23.440  0.4616E+00  0.1433E+02
  23.460  0.4734E+00  0.1434E+02
  23.480  0.4814E+00  0.1435E+02
  23.500  0.4853E+00  0.1436E+02
  23.520  0.4851E+00  0.1437E+02
  23.540  0.4810E+00  0.1438E+02
  23.560  0.4736E+00  0.1439E+02
  23.580  0.4637E+00  0.1440E+02
  23.600  0.4520E+00  0.1441E+02
  23.620  0.4397E+00  0.1442E+02
  23.640  0.4278E+00  0.1442E+02
  23.660  0.4173E+00  0.1443E+02
  23.680  0.4090E+00  0.1444E+02
  23.700  0.4038E+00  0.1445E+02
  23.720  0.4022E+00  0.1446E+02
  23.740  0.4045E+00  0.1447E+02
  23.760  0.4110E+00  0.1447E+02
  23.780  0.4213E+00  0.1448E+02
  23.800  0.4352E+00  0.1449E+02
  23.820  0.4521E+00  0.1450E+02
  23.840  0.4712E+00  0.1451E+02
  23.860  0.4917E+00  0.1452E+02
  23.880  0.5125E+00  0.1453E+02
  23.900  0.5328E+00  0.1454E+02
  23.920  0.5515E+00  0.1455E+02
  23.940  0.5677E+00  0.1456E+02
  23.960  0.5809E+00  0.1457E+02
  23.980  0.5903E+00  0.1459E+02
  24.000  0.5957E+00  0.1460E+02
  24.020  0.5970E+00  0.1461E+02
  24.040  0.5943E+00  0.1462E+02
  24.060  0.5880E+00  0.1463E+02
  24.080  0.5787E+00  0.1464E+02
  24.100  0.5671E+00  0.1466E+02
  24.120  0.5541E+00  0.1467E+02
  24.140  0.5407E+00  0.1468E+02
  24.160  0.5278E+00  0.1469E+02
  24.180  0.5163E+00  0.1470E+02
  24.200  0.5071E+00  0.1471E+02
  24.220  0.5007E+00  0.1472E+02
  24.240  0.4974E+00  0.1473E+02
  24.260  0.4975E+00  0.1474E+02
  24.280  0.5010E+00  0.1475E+02
  24.300  0.5075E+00  0.1476E+02
  24.320  0.5166E+00  0.1477E+02
  24.340  0.5278E+00  0.1478E+02
  24.360  0.5405E+00  0.1479E+02
  24.380  0.5541E+00  0.1480E+02
  24.400  0.5679E+00  0.1481E+02
  24.420  0.5816E+00  0.1483E+02
  24.440  0.5946E+00  0.1484E+02
  24.460  0.6068E+00  0.1485E+02
  24.480  0.6179E+00  0.1486E+02
  24.500  0.6280E+00  0.1487E+02
  24.520  0.6371E+00  0.1489E+02
  24.540  0.6453E+00  0.1490E+02
  24.560  0.6526E+00  0.1491E+02
  24.580  0.6592E+00  0.1493E+02
  24.600  0.6650E+00  0.1494E+02
  24.620  0.6699E+00  0.1495E+02
  24.640  0.6739E+00  0.1497E+02
  24.660  0.6766E+00  0.1498E+02
  24.680  0.6777E+00  0.1499E+02
  24.700  0.6770E+00  0.1501E+02
  24.720  0.6741E+00  0.1502E+02
  24.740  0.6688E+00  0.1503E+02
  24.760  0.6607E+00  0.1505E+02
  24.780  0.6498E+00  0.1506E+02
  24.800  0.6361E+00  0.1507E+02
  24.820  0.6197E+00  0.1508E+02
  24.840  0.6008E+00  0.1510E+02
  24.860  0.5800E+00  0.1511E+02
  24.880  0.5576E+00  0.1512E+02
  24.900  0.5343E+00  0.1513E+02
  24.920  0.5106E+00  0.1514E+02
  24.940  0.4874E+00  0.1515E+02
  24.960  0.4652E+00  0.1516E+02
  24.980  0.4445E+00  0.1517E+02
  25.000  0.4260E+00  0.1518E+02
